sample4u_at_750.00nm_cut_at_1200.50Y_01.dat
19.06.2023
10:53:34
cut middle at Y: 1200.50
top cursor: 1249 down cursor: 1152 mean of: 97 lines , 2560 datapoints
wavelength(nm)	intensity[arb. units]
585.996	3263.938
586.124	3183.619
586.252	3129.928
586.380	3170.948
586.508	3186.021
586.637	3227.144
586.765	3151.309
586.893	3176.856
587.021	3219.948
587.149	3155.567
587.277	3178.784
587.405	3176.619
587.533	3203.485
587.662	3269.299
587.790	3188.402
587.918	3188.722
588.046	3192.866
588.174	3217.144
588.302	3201.320
588.430	3196.660
588.558	3238.588
588.687	3244.320
588.815	3193.155
588.943	3260.196
589.071	3235.866
589.199	3247.526
589.327	3225.546
589.455	3325.124
589.583	3248.959
589.712	3254.876
589.840	3231.196
589.968	3255.299
590.096	3277.443
590.224	3209.134
590.352	3292.691
590.480	3239.062
590.608	3264.258
590.737	3266.289
590.865	3383.701
590.993	3243.732
591.121	3313.856
591.249	3268.515
591.377	3275.165
591.505	3405.175
591.633	3299.959
591.762	3264.639
591.890	3277.814
592.018	3385.227
592.146	3271.474
592.274	3304.660
592.402	3265.536
592.530	3478.814
592.658	3369.381
592.787	3340.588
592.915	3378.464
593.043	3301.144
593.171	3330.309
593.299	3340.464
593.427	3339.876
593.555	3358.278
593.683	3352.742
593.812	3382.196
593.940	3359.639
594.068	3371.505
594.196	3354.124
594.324	3369.887
594.452	3542.485
594.580	3392.268
594.708	3444.155
594.837	3394.835
594.965	3490.680
595.093	3426.309
595.221	3453.619
595.349	3446.330
595.477	3459.918
595.605	3449.742
595.733	3473.567
595.862	3490.412
595.990	3529.062
596.118	3572.670
596.246	3611.588
596.374	3532.330
596.502	3530.938
596.630	3551.268
596.758	3539.546
596.887	3543.247
597.015	3526.423
597.143	3555.155
597.271	3545.072
597.399	3573.021
597.527	3535.938
597.655	3523.165
597.783	3533.309
597.912	3532.402
598.040	3578.258
598.168	3505.216
598.296	3506.835
598.424	3690.773
598.552	3526.320
598.680	3543.433
598.808	3562.691
598.937	3515.412
599.065	3553.515
599.193	3589.866
599.321	3574.608
599.449	3536.814
599.577	3538.907
599.705	3549.454
599.833	3523.546
599.962	3524.835
600.090	3570.072
600.218	3577.835
600.346	3563.660
600.474	3533.660
600.602	3521.557
600.730	3533.454
600.858	3534.608
600.987	3596.515
601.115	3576.031
601.243	3623.753
601.371	3666.443
601.499	3644.959
601.627	3622.588
601.755	3600.093
601.883	3660.670
602.012	3547.247
602.140	3680.938
602.268	3632.969
602.396	3746.711
602.524	3627.351
602.652	3688.237
602.780	3697.216
602.908	3699.206
603.037	3741.577
603.165	3707.711
603.293	3720.309
603.421	3729.804
603.549	3719.443
603.677	3758.423
603.805	3734.990
603.933	3747.464
604.062	3791.082
604.190	3812.361
604.318	3822.155
604.446	3788.948
604.574	3875.351
604.702	3896.268
604.830	3832.103
604.958	3868.660
605.087	3896.608
605.215	3902.619
605.343	3959.876
605.471	3891.227
605.599	3919.485
605.727	3984.247
605.855	3958.330
605.983	3944.351
606.112	3967.340
606.240	3943.000
606.368	3986.784
606.496	3942.330
606.624	4024.938
606.752	3948.959
606.880	4018.619
607.008	3956.443
607.137	3966.959
607.265	4067.227
607.393	4005.742
607.521	4051.876
607.649	3975.773
607.777	4007.340
607.905	4035.402
608.033	3979.887
608.162	4037.031
608.290	3995.938
608.418	4082.619
608.546	4065.526
608.674	4072.804
608.802	4034.237
608.930	4023.186
609.058	3993.392
609.187	4028.588
609.315	4022.784
609.443	4010.990
609.571	4117.412
609.699	4029.031
609.827	4108.856
609.955	4050.340
610.083	4005.598
610.212	4019.474
610.340	4011.072
610.468	4026.196
610.596	4050.093
610.724	4008.876
610.852	4065.897
610.980	4057.155
611.108	4009.392
611.237	4018.959
611.365	4028.701
611.493	4014.010
611.621	4032.979
611.749	4043.381
611.877	4106.722
612.005	4020.041
612.133	4083.371
612.262	4056.784
612.390	4116.041
612.518	4125.072
612.646	4030.010
612.774	4123.856
612.902	4124.722
613.030	4045.155
613.158	4120.021
613.287	4178.381
613.415	4093.825
613.543	4138.320
613.671	4148.134
613.799	4189.124
613.927	4201.289
614.055	4167.309
614.183	4204.825
614.312	4142.505
614.440	4296.979
614.568	4241.773
614.696	4223.072
614.824	4216.031
614.952	4260.598
615.080	4233.907
615.208	4261.443
615.337	4330.897
615.465	4243.773
615.593	4279.309
615.721	4286.629
615.849	4354.237
615.977	4283.052
616.105	4282.113
616.233	4316.237
616.362	4323.299
616.490	4317.515
616.618	4337.835
616.746	4436.247
616.874	4351.856
617.002	4361.340
617.130	4347.103
617.258	4335.423
617.387	4348.711
617.515	4379.371
617.643	4359.052
617.771	4444.340
617.899	4355.515
618.027	4462.186
618.155	4427.598
618.283	4400.103
618.412	4410.052
618.540	4471.320
618.668	4395.392
618.796	4420.392
618.924	4347.041
619.052	4424.918
619.180	4420.361
619.308	4432.701
619.437	4438.742
619.565	4446.959
619.693	4418.351
619.821	4471.072
619.949	4421.062
620.077	4454.433
620.205	4478.464
620.333	4510.443
620.462	4433.155
620.590	4454.031
620.718	4493.144
620.846	4489.247
620.974	4448.454
621.102	4484.186
621.230	4479.567
621.358	4617.546
621.487	4435.299
621.615	4490.165
621.743	4429.299
621.871	4544.619
621.999	4418.876
622.127	4474.237
622.255	4444.670
622.383	4436.474
622.512	4437.299
622.640	4457.649
622.768	4467.979
622.896	4543.237
623.024	4515.691
623.152	4436.670
623.280	4519.959
623.408	4450.227
623.537	4489.948
623.665	4459.309
623.793	4505.206
623.921	4503.299
624.049	4488.340
624.177	4461.268
624.305	4452.402
624.433	4500.794
624.562	4490.103
624.690	4626.175
624.818	4463.742
624.946	4516.371
625.074	4469.897
625.202	4444.464
625.330	4470.649
625.458	4583.629
625.587	4455.773
625.715	4544.062
625.843	4502.825
625.971	4510.309
626.099	4500.515
626.227	4522.701
626.355	4455.155
626.483	4568.320
626.612	4484.608
626.740	4505.031
626.868	4490.722
626.996	4560.670
627.124	4490.784
627.252	4478.577
627.380	4507.866
627.508	4481.959
627.637	4535.320
627.765	4502.175
627.893	4515.649
628.021	4628.763
628.149	4507.124
628.277	4625.309
628.405	4522.361
628.533	4568.825
628.662	4577.031
628.790	4647.340
628.918	4555.289
629.046	4685.763
629.174	4538.485
629.302	4615.072
629.430	4510.268
629.558	4612.794
629.687	4533.237
629.815	4602.784
629.943	4713.175
630.071	4619.948
630.199	4582.010
630.327	4616.485
630.455	4646.876
630.583	4612.464
630.712	4638.753
630.840	4670.392
630.968	4644.134
631.096	4628.825
631.224	4658.361
631.352	4761.010
631.480	4681.629
631.608	4836.979
631.737	4660.660
631.865	4783.691
631.993	4756.536
632.121	4837.330
632.249	4723.392
632.377	4715.928
632.505	4690.866
632.633	4663.485
632.762	4680.918
632.890	4672.103
633.018	4706.402
633.146	4683.649
633.274	4668.856
633.402	4746.969
633.530	4694.588
633.658	4696.454
633.787	4666.165
633.915	4678.010
634.043	4688.670
634.171	4708.010
634.299	4683.629
634.427	4660.742
634.555	4908.784
634.683	4692.093
634.812	4697.052
634.940	4644.608
635.068	4666.041
635.196	4644.794
635.324	4635.165
635.452	4674.165
635.580	4773.660
635.708	4597.526
635.837	4643.577
635.965	4648.691
636.093	4623.866
636.221	4642.670
636.349	4562.660
636.477	4603.196
636.605	4617.392
636.733	4561.515
636.862	4541.340
636.990	4600.742
637.118	4595.701
637.246	4547.072
637.374	4692.041
637.502	4541.216
637.630	4539.227
637.758	4583.701
637.887	4475.216
638.015	4647.753
638.143	4556.629
638.271	4516.495
638.399	4592.948
638.527	4492.062
638.655	4544.175
638.783	4511.062
638.912	4586.000
639.040	4502.082
639.168	4495.948
639.296	4477.309
639.424	4584.423
639.552	4505.680
639.680	4547.124
639.808	4515.320
639.937	4470.629
640.065	4437.515
640.193	4440.134
640.321	4552.299
640.449	4536.052
640.577	4444.598
640.705	4447.381
640.833	4475.412
640.962	4543.289
641.090	4421.588
641.218	4463.948
641.346	4541.278
641.474	4448.505
641.602	4451.247
641.730	4449.144
641.858	4428.753
641.987	4400.577
642.115	4585.227
642.243	4473.876
642.371	4602.454
642.499	4476.113
642.627	4513.495
642.755	4443.639
642.883	4479.165
643.012	4475.670
643.140	4530.804
643.268	4511.402
643.396	4429.289
643.524	4444.845
643.652	4535.680
643.780	4455.670
643.908	4430.526
644.037	4546.041
644.165	4548.670
644.293	4635.825
644.421	4435.907
644.549	4551.392
644.677	4529.577
644.805	4486.485
644.933	4481.103
645.062	4475.340
645.190	4592.722
645.318	4486.052
645.446	4412.577
645.574	4416.691
645.702	4499.670
645.830	4470.649
645.958	4436.588
646.087	4411.938
646.215	4384.866
646.343	4396.742
646.471	4580.464
646.599	4412.856
646.727	4384.082
646.855	4409.907
646.983	4385.402
647.112	4450.010
647.240	4386.443
647.368	4462.309
647.496	4367.175
647.624	4376.454
647.752	4362.856
647.880	4309.247
648.008	4372.072
648.137	4379.206
648.265	4323.649
648.393	4411.938
648.521	4325.052
648.649	4445.701
648.777	4388.546
648.905	4313.505
649.033	4386.052
649.162	4290.918
649.290	4264.629
649.418	4253.722
649.546	4426.897
649.674	4258.010
649.802	4260.938
649.930	4227.897
650.058	4188.062
650.187	4250.979
650.315	4228.608
650.443	4255.340
650.571	4197.247
650.699	4187.155
650.827	4187.577
650.955	4152.814
651.083	4241.753
651.212	4115.258
651.340	4187.505
651.468	4143.186
651.596	4181.546
651.724	4178.299
651.852	4124.876
651.980	4117.557
652.108	4139.134
652.237	4114.722
652.365	4072.948
652.493	4086.938
652.621	4042.557
652.749	4069.536
652.877	4060.000
653.005	4087.206
653.133	4023.639
653.262	4003.701
653.390	4010.485
653.518	4155.845
653.646	3994.093
653.774	3973.897
653.902	4058.340
654.030	4025.495
654.158	3925.794
654.287	4010.206
654.415	3962.052
654.543	3981.722
654.671	3907.124
654.799	3924.515
654.927	3904.649
655.055	3902.773
655.183	3894.454
655.312	3883.196
655.440	3873.082
655.568	3861.959
655.696	3916.289
655.824	3850.928
655.952	3861.907
656.080	3840.969
656.208	3821.031
656.337	3842.278
656.465	3980.320
656.593	3800.784
656.721	3864.918
656.849	3919.485
656.977	3712.835
657.105	3798.299
657.233	3769.340
657.362	3830.928
657.490	3760.979
657.618	3761.845
657.746	3775.330
657.874	3725.887
658.002	3731.495
658.130	3722.206
658.258	3719.433
658.387	3686.371
658.515	3687.876
658.643	3683.856
658.771	3723.031
658.899	3650.010
659.027	3667.340
659.155	3651.052
659.283	3638.474
659.412	3655.103
659.540	3630.268
659.668	3662.567
659.796	3679.856
659.924	3639.670
660.052	3686.784
660.180	3569.835
660.308	3658.763
660.437	3630.155
660.565	3607.124
660.693	3576.093
660.821	3746.670
660.949	3548.196
661.077	3581.732
661.205	3705.969
661.333	3553.567
661.462	3519.072
661.590	3634.670
661.718	3554.546
661.846	3573.753
661.974	3506.835
662.102	3530.897
662.230	3566.505
662.358	3464.041
662.487	3520.948
662.615	3502.082
662.743	3517.155
662.871	3479.505
662.999	3417.247
663.127	3450.959
663.255	3453.608
663.383	3572.649
663.512	3405.309
663.640	3478.856
663.768	3465.423
663.896	3407.835
664.024	3422.000
664.152	3395.763
664.280	3475.660
664.408	3376.856
664.537	3385.825
664.665	3385.320
664.793	3385.526
664.921	3367.495
665.049	3445.773
665.177	3351.670
665.305	3362.701
665.433	3352.979
665.562	3473.309
665.690	3365.794
665.818	3481.124
665.946	3301.000
666.074	3300.010
666.202	3297.495
666.330	3275.722
666.458	3365.536
666.587	3276.464
666.715	3270.845
666.843	3267.443
666.971	3299.454
667.099	3300.670
667.227	3337.454
667.355	3327.443
667.483	3250.175
667.612	3278.258
667.740	3253.866
667.868	3224.423
667.996	3215.732
668.124	3275.340
668.252	3299.639
668.380	3210.103
668.508	3236.629
668.637	3209.742
668.765	3240.701
668.893	3228.433
669.021	3161.918
669.149	3230.938
669.277	3147.443
669.405	3254.268
669.533	3220.629
669.662	3175.052
669.790	3146.959
669.918	3179.010
670.046	3296.526
670.174	3131.258
670.302	3100.711
670.430	3070.144
670.558	3148.485
670.687	3234.299
670.815	3077.320
670.943	3134.918
671.071	3049.515
671.199	3032.619
671.327	3043.443
671.455	3056.495
671.583	3019.897
671.712	3025.845
671.840	3061.598
671.968	3143.536
672.096	3147.351
672.224	2947.113
672.352	2946.258
672.480	2919.412
672.608	2993.588
672.737	2952.227
672.865	2901.155
672.993	2933.196
673.121	2914.412
673.249	2908.784
673.377	2860.186
673.505	2852.639
673.633	2897.113
673.762	2858.722
673.890	2852.278
674.018	2875.567
674.146	2842.072
674.274	2817.763
674.402	2870.175
674.530	2808.588
674.658	2804.990
674.787	2799.320
674.915	2887.485
675.043	2799.412
675.171	2789.361
675.299	2755.082
675.427	2748.258
675.555	2753.794
675.683	2749.031
675.812	2737.928
675.940	2735.289
676.068	2706.392
676.196	2716.165
676.324	2673.072
676.452	2677.691
676.580	2667.845
676.708	2662.010
676.837	2654.691
676.965	2698.031
677.093	2705.474
677.221	2644.763
677.349	2633.670
677.477	2658.660
677.605	2628.268
677.733	2624.474
677.862	2611.732
677.990	2607.557
678.118	2593.887
678.246	2557.701
678.374	2591.526
678.502	2578.990
678.630	2547.227
678.758	2549.392
678.887	2600.103
679.015	2521.227
679.143	2528.825
679.271	2509.629
679.399	2503.464
679.527	2521.165
679.655	2521.567
679.783	2463.608
679.912	2479.918
680.040	2511.536
680.168	2478.010
680.296	2469.598
680.424	2467.196
680.552	2449.773
680.680	2444.856
680.808	2441.381
680.937	2435.381
681.065	2418.175
681.193	2406.371
681.321	2401.041
681.449	2387.649
681.577	2396.454
681.705	2370.660
681.833	2378.763
681.962	2387.062
682.090	2363.433
682.218	2373.866
682.346	2392.629
682.474	2331.711
682.602	2346.680
682.730	2341.990
682.858	2331.835
682.987	2315.794
683.115	2327.010
683.243	2328.361
683.371	2326.381
683.499	2317.567
683.627	2306.763
683.755	2305.691
683.883	2278.371
684.012	2297.340
684.140	2278.454
684.268	2262.969
684.396	2265.392
684.524	2262.691
684.652	2281.701
684.780	2254.876
684.908	2284.041
685.037	2267.052
685.165	2248.186
685.293	2259.608
685.421	2242.887
685.549	2221.804
685.677	2237.649
685.805	2226.041
685.933	2229.948
686.062	2238.876
686.190	2214.918
686.318	2205.237
686.446	2192.557
686.574	2187.381
686.702	2190.649
686.830	2192.969
686.958	2201.619
687.087	2191.443
687.215	2168.371
687.343	2157.072
687.471	2193.134
687.599	2168.289
687.727	2129.320
687.855	2134.711
687.983	2136.979
688.112	2149.598
688.240	2123.299
688.368	2146.423
688.496	2124.299
688.624	2102.794
688.752	2122.041
688.880	2089.835
689.008	2089.320
689.137	2097.969
689.265	2085.371
689.393	2071.546
689.521	2061.320
689.649	2084.041
689.777	2068.773
689.905	2057.660
690.033	2049.948
690.162	2050.443
690.290	2038.557
690.418	2028.515
690.546	2039.753
690.674	2028.237
690.802	2015.052
690.930	2006.907
691.058	1994.722
691.187	1992.660
691.315	1986.732
691.443	1985.134
691.571	1992.124
691.699	1971.546
691.827	1967.175
691.955	1961.402
692.083	1948.546
692.212	1940.763
692.340	1943.093
692.468	1938.443
692.596	1927.526
692.724	1919.103
692.852	1911.423
692.980	1905.289
693.108	1908.680
693.237	1885.351
693.365	1882.887
693.493	1887.928
693.621	1867.732
693.749	1870.443
693.877	1875.536
694.005	1833.258
694.133	1840.041
694.262	1834.495
694.390	1822.773
694.518	1832.505
694.646	1812.000
694.774	1814.175
694.902	1811.320
695.030	1789.845
695.158	1814.289
695.287	1785.907
695.415	1796.505
695.543	1780.794
695.671	1770.186
695.799	1762.814
695.927	1761.237
696.055	1755.278
696.183	1760.753
696.312	1758.330
696.440	1742.485
696.568	1728.505
696.696	1718.134
696.824	1717.206
696.952	1705.113
697.080	1713.660
697.208	1689.505
697.337	1699.732
697.465	1686.887
697.593	1694.474
697.721	1697.289
697.849	1677.144
697.977	1666.876
698.105	1680.588
698.233	1679.495
698.362	1636.072
698.490	1660.680
698.618	1653.918
698.746	1629.041
698.874	1628.959
699.002	1622.175
699.130	1623.361
699.258	1622.969
699.387	1610.062
699.515	1603.701
699.643	1616.330
699.771	1590.907
699.899	1581.227
700.027	1577.979
700.155	1583.258
700.283	1560.856
700.412	1545.309
700.540	1569.722
700.668	1555.134
700.796	1536.887
700.924	1544.124
701.052	1529.299
701.180	1527.588
701.308	1511.216
701.437	1507.670
701.565	1506.031
701.693	1496.093
701.821	1512.041
701.949	1497.186
702.077	1481.567
702.205	1491.691
702.333	1471.000
702.462	1465.577
702.590	1464.526
702.718	1454.546
702.846	1448.753
702.974	1428.577
703.102	1431.567
703.230	1429.103
703.358	1403.835
703.487	1406.155
703.615	1413.474
703.743	1412.021
703.871	1392.804
703.999	1397.237
704.127	1390.330
704.255	1367.742
704.383	1357.113
704.512	1373.546
704.640	1331.845
704.768	1346.113
704.896	1353.155
705.024	1327.010
705.152	1339.588
705.280	1346.938
705.408	1326.969
705.537	1319.608
705.665	1325.031
705.793	1298.979
705.921	1305.144
706.049	1297.526
706.177	1277.825
706.305	1293.536
706.433	1294.691
706.562	1281.186
706.690	1275.938
706.818	1268.784
706.946	1258.155
707.074	1261.938
707.202	1253.072
707.330	1237.505
707.458	1245.021
707.587	1232.299
707.715	1236.691
707.843	1209.000
707.971	1220.928
708.099	1213.536
708.227	1206.753
708.355	1209.258
708.483	1208.381
708.612	1214.588
708.740	1197.948
708.868	1191.021
708.996	1179.588
709.124	1180.412
709.252	1178.784
709.380	1177.093
709.508	1162.041
709.637	1159.082
709.765	1152.454
709.893	1151.340
710.021	1152.124
710.149	1154.402
710.277	1139.897
710.405	1130.423
710.533	1132.165
710.662	1133.928
710.790	1124.371
710.918	1119.258
711.046	1131.010
711.174	1117.082
711.302	1127.052
711.430	1111.309
711.558	1114.227
711.687	1103.237
711.815	1095.340
711.943	1104.887
712.071	1099.216
712.199	1085.907
712.327	1080.402
712.455	1088.237
712.583	1083.196
712.712	1071.392
712.840	1062.629
712.968	1070.495
713.096	1060.062
713.224	1057.124
713.352	1049.701
713.480	1059.969
713.608	1051.351
713.737	1041.361
713.865	1048.351
713.993	1053.536
714.121	1026.619
714.249	1040.691
714.377	1030.897
714.505	1032.835
714.633	1026.464
714.762	1016.000
714.890	1014.814
715.018	1013.196
715.146	1015.474
715.274	1009.608
715.402	1006.701
715.530	997.082
715.658	987.258
715.787	986.763
715.915	993.845
716.043	996.804
716.171	976.351
716.299	978.546
716.427	982.000
716.555	974.711
716.683	974.794
716.812	966.402
716.940	966.175
717.068	972.247
717.196	955.351
717.324	956.165
717.452	944.990
717.580	955.299
717.708	935.557
717.837	944.588
717.965	939.258
718.093	943.072
718.221	930.237
718.349	935.485
718.477	940.897
718.605	927.443
718.733	930.856
718.862	912.763
718.990	918.268
719.118	915.082
719.246	906.495
719.374	903.268
719.502	899.629
719.630	905.722
719.758	894.402
719.887	889.814
720.015	885.165
720.143	878.845
720.271	873.918
720.399	879.000
720.527	862.598
720.655	857.381
720.783	861.619
720.912	855.072
721.040	850.144
721.168	853.351
721.296	839.557
721.424	842.474
721.552	829.124
721.680	820.835
721.808	825.866
721.937	824.598
722.065	819.299
722.193	821.381
722.321	826.412
722.449	821.330
722.577	812.216
722.705	804.619
722.833	812.402
722.962	801.701
723.090	794.732
723.218	794.629
723.346	794.784
723.474	789.938
723.602	784.268
723.730	779.433
723.858	783.082
723.987	776.959
724.115	775.495
724.243	772.175
724.371	766.557
724.499	768.258
724.627	755.629
724.755	758.845
724.883	756.072
725.012	752.113
725.140	755.351
725.268	752.113
725.396	741.639
725.524	740.639
725.652	736.680
725.780	736.897
725.908	729.031
726.037	727.206
726.165	724.804
726.293	722.052
726.421	723.268
726.549	717.619
726.677	711.918
726.805	709.794
726.933	709.031
727.062	705.010
727.190	703.010
727.318	698.309
727.446	698.082
727.574	697.567
727.702	686.619
727.830	687.340
727.958	688.464
728.087	683.701
728.215	675.021
728.343	675.021
728.471	673.845
728.599	675.258
728.727	674.196
728.855	672.309
728.983	658.072
729.112	660.072
729.240	655.804
729.368	662.701
729.496	654.557
729.624	651.763
729.752	652.887
729.880	649.773
730.008	643.474
730.137	649.649
730.265	643.124
730.393	637.351
730.521	634.196
730.649	634.526
730.777	632.186
730.905	627.124
731.033	621.701
731.162	630.320
731.290	629.990
731.418	624.371
731.546	617.825
731.674	615.619
731.802	614.247
731.930	616.000
732.058	605.186
732.187	607.515
732.315	601.732
732.443	608.330
732.571	602.732
732.699	600.660
732.827	602.979
732.955	594.381
733.083	593.722
733.212	597.835
733.340	597.536
733.468	595.062
733.596	585.639
733.724	585.794
733.852	578.639
733.980	573.825
734.108	581.670
734.237	579.082
734.365	577.186
734.493	570.753
734.621	576.680
734.749	566.639
734.877	565.608
735.005	563.804
735.133	569.907
735.262	564.794
735.390	559.052
735.518	553.959
735.646	560.041
735.774	546.784
735.902	553.278
736.030	550.196
736.158	554.041
736.287	546.206
