0pol_90_90_at_750.00nm_cut_at_984.50Y_01.dat
24.04.2023
10:49:24
cut middle at Y: 984.50
top cursor: 1008 down cursor: 961 mean of: 47 lines , 2560 datapoints
wavelength(nm)	intensity[arb. units]
585.996	12352.574
586.124	12087.404
586.252	11976.979
586.380	12072.021
586.508	12105.213
586.637	12200.681
586.765	12237.660
586.893	12306.170
587.021	12324.149
587.149	12392.128
587.277	12380.723
587.405	12466.213
587.533	12389.277
587.662	12565.106
587.790	12562.936
587.918	12399.681
588.046	12502.234
588.174	12472.043
588.302	12551.064
588.430	12506.745
588.558	12466.468
588.687	12510.745
588.815	12495.915
588.943	12544.149
589.071	12514.000
589.199	12582.872
589.327	12541.170
589.455	12502.681
589.583	12669.638
589.712	12582.106
589.840	12567.213
589.968	12600.000
590.096	12610.043
590.224	12630.553
590.352	12677.489
590.480	12679.809
590.608	12675.426
590.737	12763.702
590.865	12816.362
590.993	12731.191
591.121	12802.553
591.249	12762.170
591.377	12767.021
591.505	12792.085
591.633	12862.170
591.762	12826.085
591.890	13035.170
592.018	12838.489
592.146	12880.362
592.274	12931.404
592.402	12916.702
592.530	12921.468
592.658	13224.319
592.787	12974.872
592.915	13184.745
593.043	13086.872
593.171	13129.574
593.299	13185.957
593.427	13197.468
593.555	13246.277
593.683	13294.936
593.812	13334.894
593.940	13333.638
594.068	13424.702
594.196	13460.447
594.324	13531.149
594.452	13517.809
594.580	13535.064
594.708	13637.723
594.837	13590.574
594.965	13690.957
595.093	13728.447
595.221	13762.936
595.349	13896.638
595.477	13789.383
595.605	13835.021
595.733	13804.319
595.862	14092.404
595.990	13935.660
596.118	13967.574
596.246	14143.085
596.374	14049.830
596.502	14097.553
596.630	14087.170
596.758	14094.043
596.887	14085.255
597.015	14198.596
597.143	14206.106
597.271	14222.043
597.399	14221.596
597.527	14126.170
597.655	14205.170
597.783	14250.213
597.912	14245.702
598.040	14277.128
598.168	14355.170
598.296	14267.787
598.424	14298.043
598.552	14329.660
598.680	14256.000
598.808	14420.085
598.937	14300.426
599.065	14289.489
599.193	14409.213
599.321	14375.021
599.449	14329.638
599.577	14279.723
599.705	14419.894
599.833	14352.766
599.962	14376.106
600.090	14461.043
600.218	14484.872
600.346	14551.383
600.474	14505.255
600.602	14526.787
600.730	14551.787
600.858	14655.255
600.987	14828.489
601.115	14711.000
601.243	14790.085
601.371	14776.894
601.499	14867.085
601.627	15010.234
601.755	14942.277
601.883	15019.234
602.012	15088.085
602.140	15114.383
602.268	15242.468
602.396	15268.809
602.524	15369.468
602.652	15314.191
602.780	15413.319
602.908	15512.872
603.037	15599.553
603.165	15543.000
603.293	15647.617
603.421	15632.638
603.549	15768.872
603.677	15880.936
603.805	15919.383
603.933	15997.191
604.062	16097.191
604.190	16087.489
604.318	16208.809
604.446	16179.383
604.574	16278.128
604.702	16345.340
604.830	16355.617
604.958	16472.383
605.087	16484.532
605.215	16564.489
605.343	16616.894
605.471	16653.000
605.599	16745.234
605.727	16756.915
605.855	16809.234
605.983	16879.872
606.112	16927.468
606.240	16973.362
606.368	16976.957
606.496	17209.298
606.624	17034.681
606.752	17158.872
606.880	17274.489
607.008	17401.723
607.137	17305.660
607.265	17161.383
607.393	17276.191
607.521	17388.596
607.649	17385.915
607.777	17289.596
607.905	17353.106
608.033	17367.064
608.162	17377.170
608.290	17432.128
608.418	17386.149
608.546	17488.277
608.674	17426.766
608.802	17445.319
608.930	17542.532
609.058	17566.872
609.187	17671.319
609.315	17643.000
609.443	17676.277
609.571	17713.447
609.699	17676.404
609.827	17743.617
609.955	17726.979
610.083	17732.468
610.212	17756.553
610.340	17729.660
610.468	17834.957
610.596	17887.277
610.724	17922.723
610.852	17869.574
610.980	17972.702
611.108	18033.915
611.237	17950.723
611.365	18021.319
611.493	18013.489
611.621	18145.404
611.749	18224.383
611.877	18268.447
612.005	18268.277
612.133	18305.149
612.262	18385.894
612.390	18462.319
612.518	18497.979
612.646	18592.277
612.774	18606.617
612.902	18657.255
613.030	18813.340
613.158	18939.404
613.287	18913.681
613.415	18915.574
613.543	18920.660
613.671	18946.340
613.799	19114.085
613.927	18986.170
614.055	19090.532
614.183	19280.106
614.312	19206.638
614.440	19422.340
614.568	19380.617
614.696	19436.915
614.824	19643.362
614.952	19578.362
615.080	19651.255
615.208	19769.851
615.337	19871.383
615.465	19968.745
615.593	20147.660
615.721	20300.553
615.849	20331.745
615.977	20421.702
616.105	20508.936
616.233	20456.745
616.362	20556.404
616.490	20549.191
616.618	20652.404
616.746	20844.085
616.874	20803.170
617.002	20791.106
617.130	20925.511
617.258	21084.106
617.387	21030.277
617.515	21054.021
617.643	21086.787
617.771	21140.106
617.899	21226.191
618.027	21297.979
618.155	21409.596
618.283	21371.979
618.412	21508.383
618.540	21555.191
618.668	21581.532
618.796	21629.128
618.924	21827.000
619.052	21753.511
619.180	21793.064
619.308	21881.000
619.437	21912.128
619.565	22011.809
619.693	21980.830
619.821	21990.426
619.949	22107.319
620.077	22137.277
620.205	22241.064
620.333	22288.191
620.462	22425.574
620.590	22426.191
620.718	22458.532
620.846	22520.936
620.974	22505.766
621.102	22578.234
621.230	22610.596
621.358	22777.468
621.487	22661.936
621.615	22799.511
621.743	22847.468
621.871	22886.532
621.999	22963.830
622.127	22892.809
622.255	23052.191
622.383	23068.851
622.512	23082.000
622.640	23281.043
622.768	23173.191
622.896	23257.553
623.024	23347.957
623.152	23499.553
623.280	23474.213
623.408	23436.085
623.537	23475.043
623.665	23540.277
623.793	23611.766
623.921	23574.468
624.049	23638.532
624.177	23723.766
624.305	23780.660
624.433	23845.830
624.562	23994.617
624.690	23921.553
624.818	24056.128
624.946	24212.489
625.074	24093.319
625.202	24162.319
625.330	24177.149
625.458	24280.617
625.587	24298.170
625.715	24348.043
625.843	24545.234
625.971	24615.489
626.099	24543.809
626.227	24735.340
626.355	24688.511
626.483	24853.149
626.612	24793.043
626.740	24933.553
626.868	25041.191
626.996	25027.319
627.124	25182.000
627.252	25132.574
627.380	25330.043
627.508	25407.404
627.637	25367.170
627.765	25553.000
627.893	25685.426
628.021	25769.319
628.149	26006.936
628.277	26127.191
628.405	26247.362
628.533	26078.191
628.662	26130.319
628.790	26240.745
628.918	26271.277
629.046	26368.745
629.174	26611.851
629.302	26955.872
629.430	26851.128
629.558	26855.915
629.687	26876.128
629.815	27023.532
629.943	27108.660
630.071	27164.447
630.199	27294.085
630.327	27360.745
630.455	27470.213
630.583	27685.766
630.712	27660.298
630.840	27827.511
630.968	27908.638
631.096	27987.319
631.224	28170.894
631.352	28192.234
631.480	28270.553
631.608	28425.766
631.737	28578.809
631.865	28691.511
631.993	28618.702
632.121	28865.809
632.249	28861.489
632.377	28910.277
632.505	28987.553
632.633	28931.851
632.762	29058.489
632.890	29250.170
633.018	29159.404
633.146	29437.532
633.274	29310.851
633.402	29438.404
633.530	29518.298
633.658	29699.106
633.787	29718.766
633.915	29704.660
634.043	29643.936
634.171	29816.128
634.299	29848.809
634.427	29941.936
634.555	29983.723
634.683	30015.851
634.812	30104.553
634.940	30092.404
635.068	30160.809
635.196	30220.957
635.324	30298.489
635.452	30340.021
635.580	30324.468
635.708	30374.745
635.837	30427.000
635.965	30361.000
636.093	30459.532
636.221	30558.170
636.349	30647.021
636.477	30669.660
636.605	30784.191
636.733	30693.191
636.862	30670.277
636.990	30832.489
637.118	30806.894
637.246	30858.553
637.374	30941.574
637.502	30999.660
637.630	30945.468
637.758	30970.489
637.887	31169.702
638.015	31098.191
638.143	31244.830
638.271	31268.277
638.399	31291.830
638.527	31366.489
638.655	31390.426
638.783	31614.085
638.912	31533.894
639.040	31643.766
639.168	31719.617
639.296	31752.809
639.424	31968.723
639.552	31908.362
639.680	32138.362
639.808	32052.213
639.937	32197.170
640.065	32256.340
640.193	32408.936
640.321	32381.340
640.449	32478.681
640.577	32684.128
640.705	32704.128
640.833	32877.170
640.962	32826.596
641.090	32916.043
641.218	33065.362
641.346	33237.979
641.474	33307.660
641.602	33397.638
641.730	33395.170
641.858	33552.936
641.987	33714.745
642.115	33750.957
642.243	33905.660
642.371	33934.106
642.499	34227.766
642.627	34248.043
642.755	34407.149
642.883	34472.468
643.012	34546.574
643.140	34694.851
643.268	34772.894
643.396	34905.191
643.524	35081.277
643.652	35100.191
643.780	35094.617
643.908	35339.596
644.037	35431.915
644.165	35484.511
644.293	35553.894
644.421	35680.936
644.549	35766.149
644.677	35862.255
644.805	35950.809
644.933	35989.000
645.062	36159.383
645.190	36166.957
645.318	36382.149
645.446	36301.723
645.574	36412.532
645.702	36519.362
645.830	36777.383
645.958	36611.851
646.087	36974.766
646.215	36734.957
646.343	37042.000
646.471	36881.936
646.599	37062.511
646.727	36996.255
646.855	37127.149
646.983	37254.489
647.112	37186.851
647.240	37399.340
647.368	37315.383
647.496	37409.574
647.624	37396.426
647.752	37495.638
647.880	37554.957
648.008	37519.872
648.137	37666.745
648.265	37670.128
648.393	37664.894
648.521	37867.170
648.649	37815.745
648.777	37910.404
648.905	37844.319
649.033	37863.383
649.162	37903.298
649.290	38018.468
649.418	37874.426
649.546	38079.362
649.674	38125.362
649.802	38110.617
649.930	38400.511
650.058	38195.085
650.187	38148.064
650.315	38288.149
650.443	38351.170
650.571	38389.383
650.699	38388.298
650.827	38439.872
650.955	38473.277
651.083	38508.362
651.212	38646.681
651.340	38600.596
651.468	38676.830
651.596	38691.574
651.724	38755.191
651.852	38751.170
651.980	38764.277
652.108	38905.340
652.237	38940.957
652.365	39000.043
652.493	38957.830
652.621	39001.489
652.749	39161.766
652.877	39096.468
653.005	39186.021
653.133	39232.085
653.262	39261.936
653.390	39273.894
653.518	39341.213
653.646	39443.213
653.774	39461.872
653.902	39400.723
654.030	39582.213
654.158	39460.234
654.287	39661.511
654.415	39576.489
654.543	39749.851
654.671	39671.064
654.799	39847.426
654.927	39745.404
655.055	39726.149
655.183	39799.298
655.312	39806.064
655.440	39903.106
655.568	39878.340
655.696	39878.340
655.824	40043.638
655.952	40012.745
656.080	40003.787
656.208	40155.085
656.337	40041.234
656.465	40172.319
656.593	40183.830
656.721	40024.681
656.849	40105.255
656.977	40096.340
657.105	40106.191
657.233	40077.596
657.362	40155.745
657.490	40114.574
657.618	40151.255
657.746	40237.766
657.874	40205.894
658.002	40210.234
658.130	40126.213
658.258	40153.234
658.387	40221.043
658.515	40317.000
658.643	40178.660
658.771	40371.404
658.899	40309.234
659.027	40288.617
659.155	40391.809
659.283	40467.383
659.412	40274.979
659.540	40334.319
659.668	40376.362
659.796	40295.298
659.924	40418.064
660.052	40412.979
660.180	40262.085
660.308	40335.277
660.437	40392.830
660.565	40468.553
660.693	40395.638
660.821	40384.574
660.949	40390.000
661.077	40488.043
661.205	40450.489
661.333	40404.319
661.462	40480.553
661.590	40504.043
661.718	40617.723
661.846	40526.085
661.974	40598.851
662.102	40459.383
662.230	40565.723
662.358	40501.979
662.487	40566.511
662.615	40623.362
662.743	40514.064
662.871	40585.638
662.999	40569.979
663.127	40568.149
663.255	40655.596
663.383	40666.617
663.512	40661.340
663.640	40741.936
663.768	40736.511
663.896	40799.383
664.024	40859.766
664.152	40820.149
664.280	41003.447
664.408	40899.660
664.537	40916.383
664.665	40946.383
664.793	40906.787
664.921	40981.872
665.049	40977.277
665.177	41016.277
665.305	40979.362
665.433	40909.872
665.562	41031.426
665.690	40993.170
665.818	41156.064
665.946	41054.681
666.074	40984.553
666.202	41058.872
666.330	41141.128
666.458	41077.213
666.587	41025.553
666.715	41121.106
666.843	41152.404
666.971	41118.064
667.099	41017.617
667.227	41041.128
667.355	41024.340
667.483	41146.404
667.612	40999.681
667.740	41079.255
667.868	41150.362
667.996	41111.043
668.124	41070.979
668.252	41086.383
668.380	41122.234
668.508	41082.660
668.637	41068.851
668.765	41015.064
668.893	40950.596
669.021	40954.000
669.149	40946.979
669.277	40917.021
669.405	40838.000
669.533	40846.872
669.662	41035.149
669.790	40738.106
669.918	40777.149
670.046	40727.702
670.174	40707.319
670.302	40596.085
670.430	40461.532
670.558	40563.085
670.687	40355.298
670.815	40407.000
670.943	40296.617
671.071	40196.170
671.199	40064.574
671.327	39935.000
671.455	39949.532
671.583	39911.426
671.712	39988.851
671.840	39732.149
671.968	39625.681
672.096	39583.468
672.224	39445.574
672.352	39473.894
672.480	39313.298
672.608	39136.277
672.737	38994.617
672.865	39123.766
672.993	38860.489
673.121	38670.468
673.249	38602.553
673.377	38493.213
673.505	38419.574
673.633	38298.745
673.762	38199.957
673.890	37989.489
674.018	38296.404
674.146	37960.787
674.274	37800.383
674.402	37913.979
674.530	37626.787
674.658	37603.213
674.787	37421.809
674.915	37169.617
675.043	37230.128
675.171	37099.617
675.299	37008.766
675.427	36865.809
675.555	36716.872
675.683	36619.404
675.812	36516.532
675.940	36478.745
676.068	36358.596
676.196	36209.085
676.324	36207.702
676.452	35972.447
676.580	35829.106
676.708	35804.745
676.837	35697.723
676.965	35595.489
677.093	35522.213
677.221	35349.723
677.349	35293.447
677.477	35237.745
677.605	35114.830
677.733	35027.447
677.862	34858.447
677.990	34759.723
678.118	34639.191
678.246	34556.957
678.374	34497.447
678.502	34415.383
678.630	34312.340
678.758	34211.702
678.887	34038.766
679.015	34033.511
679.143	33884.830
679.271	33804.894
679.399	33721.766
679.527	33663.617
679.655	33580.255
679.783	33547.851
679.912	33503.277
680.040	33379.128
680.168	33251.936
680.296	33089.149
680.424	33020.383
680.552	33024.043
680.680	32965.787
680.808	32836.851
680.937	32768.362
681.065	32660.745
681.193	32598.809
681.321	32563.234
681.449	32468.574
681.577	32359.191
681.705	32356.511
681.833	32218.574
681.962	32125.957
682.090	32196.681
682.218	31986.128
682.346	31894.979
682.474	31778.106
682.602	31745.000
682.730	31677.149
682.858	31494.149
682.987	31481.489
683.115	31524.809
683.243	31304.511
683.371	31240.021
683.499	31229.128
683.627	31149.872
683.755	31097.234
683.883	31202.936
684.012	30959.447
684.140	30814.213
684.268	30729.085
684.396	30689.106
684.524	30633.170
684.652	30613.957
684.780	30535.277
684.908	30496.872
685.037	30377.170
685.165	30207.830
685.293	30159.213
685.421	30158.809
685.549	30007.553
685.677	29887.043
685.805	29934.298
685.933	29824.000
686.062	29596.553
686.190	29572.298
686.318	29505.617
686.446	29369.553
686.574	29288.638
686.702	29383.596
686.830	29140.404
686.958	28997.234
687.087	28996.489
687.215	28904.553
687.343	28756.106
687.471	28700.064
687.599	28500.426
687.727	28596.766
687.855	28407.106
687.983	28330.979
688.112	28249.362
688.240	28075.872
688.368	27994.255
688.496	27940.383
688.624	27827.915
688.752	27678.936
688.880	27569.872
689.008	27476.957
689.137	27418.170
689.265	27306.021
689.393	27102.574
689.521	26987.872
689.649	26868.915
689.777	26827.915
689.905	26643.830
690.033	26573.340
690.162	26337.362
690.290	26330.511
690.418	26212.936
690.546	26143.681
690.674	26042.043
690.802	25827.468
690.930	25801.596
691.058	25691.447
691.187	25447.213
691.315	25376.702
691.443	25267.106
691.571	25165.851
691.699	25104.128
691.827	25012.106
691.955	24768.255
692.083	24656.021
692.212	24731.851
692.340	24482.660
692.468	24360.702
692.596	24252.298
692.724	24209.638
692.852	24027.809
692.980	23946.809
693.108	23772.426
693.237	23654.957
693.365	23560.872
693.493	23324.170
693.621	23312.191
693.749	23157.617
693.877	23072.532
694.005	23001.660
694.133	22771.064
694.262	22786.894
694.390	22616.596
694.518	22478.979
694.646	22330.043
694.774	22303.723
694.902	22291.766
695.030	22133.957
695.158	21873.447
695.287	21808.149
695.415	21719.830
695.543	21571.894
695.671	21663.553
695.799	21429.915
695.927	21316.426
696.055	21175.894
696.183	21049.319
696.312	20983.064
696.440	21079.745
696.568	20864.149
696.696	20805.277
696.824	20651.936
696.952	20557.298
697.080	20420.851
697.208	20318.170
697.337	20280.128
697.465	20178.255
697.593	19955.957
697.721	19975.617
697.849	19823.213
697.977	19820.489
698.105	19703.128
698.233	19548.638
698.362	19477.064
698.490	19362.787
698.618	19205.830
698.746	19250.106
698.874	19128.128
699.002	19212.915
699.130	18950.872
699.258	18835.872
699.387	18728.681
699.515	18678.000
699.643	18534.298
699.771	18500.936
699.899	18316.298
700.027	18238.043
700.155	18151.745
700.283	18068.064
700.412	17958.170
700.540	17798.979
700.668	17784.000
700.796	17624.787
700.924	17578.404
701.052	17498.532
701.180	17478.426
701.308	17269.511
701.437	17073.979
701.565	16993.745
701.693	16872.021
701.821	16794.149
701.949	16741.596
702.077	16693.234
702.205	16521.340
702.333	16427.894
702.462	16322.681
702.590	16178.085
702.718	16117.851
702.846	16054.447
702.974	15867.915
703.102	15838.681
703.230	15816.851
703.358	15660.681
703.487	15534.723
703.615	15580.957
703.743	15279.383
703.871	15192.702
703.999	15169.340
704.127	15062.872
704.255	14825.277
704.383	14975.681
704.512	14718.574
704.640	14661.489
704.768	14511.085
704.896	14501.574
705.024	14287.532
705.152	14321.489
705.280	14143.660
705.408	14023.000
705.537	13950.723
705.665	13833.362
705.793	13776.298
705.921	13661.511
706.049	13647.872
706.177	13398.213
706.305	13382.128
706.433	13356.809
706.562	13230.404
706.690	13110.489
706.818	13003.064
706.946	13153.574
707.074	12870.532
707.202	12785.021
707.330	12751.511
707.458	12654.638
707.587	12501.638
707.715	12439.404
707.843	12426.702
707.971	12326.043
708.099	12267.319
708.227	12139.851
708.355	12046.021
708.483	11940.106
708.612	11871.447
708.740	11867.362
708.868	11843.660
708.996	11723.660
709.124	11698.574
709.252	11534.553
709.380	11438.851
709.508	11463.532
709.637	11357.277
709.765	11243.319
709.893	11268.851
710.021	11152.957
710.149	11080.766
710.277	11055.915
710.405	10910.681
710.533	10883.106
710.662	10785.298
710.790	10730.532
710.918	10755.915
711.046	10672.468
711.174	10547.511
711.302	10563.426
711.430	10584.213
711.558	10358.085
711.687	10313.447
711.815	10294.617
711.943	10255.745
712.071	10182.277
712.199	10123.638
712.327	10102.362
712.455	10000.574
712.583	9969.596
712.712	9876.766
712.840	9812.553
712.968	9772.809
713.096	9764.362
713.224	9643.191
713.352	9645.489
713.480	9539.596
713.608	9480.745
713.737	9467.553
713.865	9441.362
713.993	9416.468
714.121	9332.979
714.249	9324.064
714.377	9312.106
714.505	9176.553
714.633	9288.447
714.762	9072.085
714.890	8969.149
715.018	8981.936
715.146	8957.851
715.274	8932.745
715.402	8989.681
715.530	8832.277
715.658	8674.702
715.787	8660.085
715.915	8807.532
716.043	8568.000
716.171	8579.000
716.299	8572.511
716.427	8479.447
716.555	8397.234
716.683	8313.787
716.812	8305.702
716.940	8245.702
717.068	8122.489
717.196	8301.617
717.324	8185.000
717.452	8106.638
717.580	7999.979
717.708	7945.064
717.837	7943.979
717.965	7802.553
718.093	7813.574
718.221	7720.936
718.349	7745.574
718.477	7758.979
718.605	7678.489
718.733	7588.213
718.862	7510.809
718.990	7442.191
719.118	7445.383
719.246	7373.319
719.374	7396.447
719.502	7328.596
719.630	7393.426
719.758	7162.596
719.887	7109.596
720.015	7257.234
720.143	6998.979
720.271	6989.447
720.399	6958.553
720.527	6966.255
720.655	6956.340
720.783	6906.638
720.912	6758.277
721.040	6721.702
721.168	6646.085
721.296	6703.617
721.424	6610.277
721.552	6479.426
721.680	6447.511
721.808	6455.915
721.937	6412.681
722.065	6491.702
722.193	6431.957
722.321	6270.298
722.449	6231.660
722.577	6174.404
722.705	6124.426
722.833	6101.043
722.962	6099.255
723.090	5974.574
723.218	5863.894
723.346	5901.043
723.474	5853.809
723.602	5929.894
723.730	5824.574
723.858	5913.957
723.987	5776.787
724.115	5749.532
724.243	5648.170
724.371	5643.234
724.499	5605.702
724.627	5452.128
724.755	5446.191
724.883	5428.766
725.012	5393.383
725.140	5435.191
725.268	5337.106
725.396	5250.277
725.524	5203.787
725.652	5198.000
725.780	5170.809
725.908	5189.362
726.037	5213.660
726.165	5033.426
726.293	4983.468
726.421	4959.830
726.549	4918.043
726.677	4870.596
726.805	4842.043
726.933	4812.234
727.062	4852.681
727.190	4734.277
727.318	4723.234
727.446	4709.532
727.574	4658.447
