0pol_90_110_at_750.00nm_cut_at_984.50Y_01.dat
24.04.2023
10:42:22
cut middle at Y: 984.50
top cursor: 1008 down cursor: 961 mean of: 47 lines , 2560 datapoints
wavelength(nm)	intensity[arb. units]
585.996	12013.532
586.124	11735.511
586.252	11621.617
586.380	11688.447
586.508	11751.468
586.637	11838.574
586.765	11856.362
586.893	11908.319
587.021	11898.872
587.149	11996.809
587.277	11944.894
587.405	12002.979
587.533	11930.234
587.662	12108.660
587.790	12088.319
587.918	12023.660
588.046	12050.170
588.174	11960.553
588.302	12111.638
588.430	12069.957
588.558	12012.447
588.687	12062.298
588.815	12066.596
588.943	12024.149
589.071	12031.809
589.199	12079.532
589.327	12060.702
589.455	11961.277
589.583	12142.979
589.712	12121.596
589.840	12035.426
589.968	12010.340
590.096	12041.170
590.224	12110.234
590.352	12061.681
590.480	12113.191
590.608	12122.213
590.737	12215.766
590.865	12185.787
590.993	12121.191
591.121	12170.894
591.249	12180.511
591.377	12166.809
591.505	12178.255
591.633	12215.787
591.762	12193.298
591.890	12385.979
592.018	12176.319
592.146	12174.234
592.274	12225.745
592.402	12218.638
592.530	12301.851
592.658	12556.468
592.787	12346.170
592.915	12506.426
593.043	12355.000
593.171	12446.574
593.299	12433.383
593.427	12417.404
593.555	12527.979
593.683	12506.574
593.812	12487.085
593.940	12566.745
594.068	12615.915
594.196	12689.106
594.324	12639.021
594.452	12678.936
594.580	12731.149
594.708	12742.064
594.837	12756.106
594.965	12819.830
595.093	12867.128
595.221	12879.638
595.349	13008.830
595.477	12908.149
595.605	12940.277
595.733	12940.766
595.862	13146.809
595.990	13002.957
596.118	13033.809
596.246	13169.574
596.374	13085.021
596.502	13107.298
596.630	13132.532
596.758	13088.957
596.887	13139.660
597.015	13195.532
597.143	13163.660
597.271	13175.447
597.399	13156.809
597.527	13112.787
597.655	13190.383
597.783	13109.191
597.912	13117.809
598.040	13154.915
598.168	13189.319
598.296	13152.915
598.424	13203.511
598.552	13153.340
598.680	13143.809
598.808	13243.021
598.937	13182.979
599.065	13126.787
599.193	13266.723
599.321	13322.362
599.449	13123.191
599.577	13084.851
599.705	13215.340
599.833	13156.106
599.962	13195.574
600.090	13264.617
600.218	13253.064
600.346	13314.702
600.474	13227.489
600.602	13237.426
600.730	13359.277
600.858	13307.043
600.987	13514.787
601.115	13395.319
601.243	13436.298
601.371	13446.702
601.499	13498.745
601.627	13621.851
601.755	13576.872
601.883	13690.021
602.012	13688.872
602.140	13635.511
602.268	13822.213
602.396	13759.298
602.524	13886.489
602.652	13884.064
602.780	13949.085
602.908	13951.851
603.037	13994.149
603.165	14014.830
603.293	14100.766
603.421	14095.319
603.549	14162.617
603.677	14253.830
603.805	14250.936
603.933	14341.638
604.062	14431.340
604.190	14413.532
604.318	14434.745
604.446	14507.809
604.574	14481.106
604.702	14610.872
604.830	14587.298
604.958	14610.745
605.087	14672.660
605.215	14688.064
605.343	14730.894
605.471	14820.745
605.599	14797.000
605.727	14840.915
605.855	14865.319
605.983	14881.319
606.112	14914.298
606.240	14941.468
606.368	14971.191
606.496	15190.723
606.624	14998.298
606.752	15063.851
606.880	15156.000
607.008	15224.085
607.137	15178.170
607.265	15046.319
607.393	15101.447
607.521	15181.404
607.649	15124.340
607.777	15105.468
607.905	15138.298
608.033	15123.532
608.162	15110.021
608.290	15112.085
608.418	15112.638
608.546	15150.511
608.674	15137.319
608.802	15108.489
608.930	15145.745
609.058	15187.660
609.187	15228.511
609.315	15271.702
609.443	15232.957
609.571	15264.234
609.699	15236.383
609.827	15283.660
609.955	15273.106
610.083	15214.021
610.212	15228.936
610.340	15238.851
610.468	15263.787
610.596	15307.340
610.724	15279.915
610.852	15243.915
610.980	15245.468
611.108	15333.979
611.237	15199.170
611.365	15286.638
611.493	15306.383
611.621	15339.106
611.749	15373.149
611.877	15399.234
612.005	15372.574
612.133	15432.660
612.262	15490.511
612.390	15454.319
612.518	15548.745
612.646	15612.723
612.774	15552.702
612.902	15604.957
613.030	15747.447
613.158	15813.957
613.287	15749.681
613.415	15741.106
613.543	15666.277
613.671	15662.617
613.799	15819.362
613.927	15741.638
614.055	15777.979
614.183	15919.255
614.312	15801.298
614.440	16008.660
614.568	15940.979
614.696	15978.064
614.824	16193.170
614.952	16095.255
615.080	16023.745
615.208	16118.915
615.337	16211.149
615.465	16232.596
615.593	16398.021
615.721	16549.936
615.849	16551.574
615.977	16560.064
616.105	16558.404
616.233	16578.234
616.362	16617.979
616.490	16571.532
616.618	16682.638
616.746	16723.936
616.874	16783.660
617.002	16730.894
617.130	16781.043
617.258	16966.617
617.387	16854.298
617.515	16869.319
617.643	16904.447
617.771	16947.489
617.899	16881.021
618.027	16915.745
618.155	17058.234
618.283	16960.000
618.412	16947.064
618.540	17016.596
618.668	16995.809
618.796	17055.468
618.924	17169.106
619.052	17079.170
619.180	17148.383
619.308	17160.660
619.437	17160.894
619.565	17124.085
619.693	17065.170
619.821	17120.170
619.949	17115.532
620.077	17246.340
620.205	17274.723
620.333	17212.021
620.462	17232.596
620.590	17273.723
620.718	17169.213
620.846	17257.255
620.974	17247.596
621.102	17242.447
621.230	17202.915
621.358	17337.830
621.487	17231.723
621.615	17228.106
621.743	17372.979
621.871	17276.702
621.999	17402.851
622.127	17312.319
622.255	17295.298
622.383	17300.766
622.512	17301.404
622.640	17501.511
622.768	17318.872
622.896	17297.660
623.024	17330.532
623.152	17483.766
623.280	17389.851
623.408	17282.766
623.537	17319.553
623.665	17352.702
623.793	17386.149
623.921	17305.532
624.049	17335.681
624.177	17246.085
624.305	17352.085
624.433	17340.957
624.562	17457.681
624.690	17359.128
624.818	17397.702
624.946	17563.447
625.074	17441.106
625.202	17377.872
625.330	17385.957
625.458	17501.574
625.587	17379.915
625.715	17495.574
625.843	17603.298
625.971	17523.553
626.099	17499.191
626.227	17538.085
626.355	17501.277
626.483	17600.021
626.612	17524.021
626.740	17561.277
626.868	17678.000
626.996	17624.851
627.124	17630.830
627.252	17643.170
627.380	17724.000
627.508	17762.617
627.637	17717.894
627.765	17723.660
627.893	17820.851
628.021	17835.170
628.149	18080.574
628.277	18163.957
628.405	18133.234
628.533	17915.681
628.662	17925.128
628.790	17946.894
628.918	17986.447
629.046	17976.915
629.174	18190.915
629.302	18357.468
629.430	18213.766
629.558	18198.915
629.687	18154.872
629.815	18177.064
629.943	18271.979
630.071	18299.894
630.199	18354.553
630.327	18358.596
630.455	18360.532
630.583	18533.170
630.712	18445.894
630.840	18473.426
630.968	18526.638
631.096	18483.128
631.224	18529.383
631.352	18582.319
631.480	18574.915
631.608	18643.128
631.737	18701.362
631.865	18754.957
631.993	18675.766
632.121	18795.745
632.249	18810.404
632.377	18785.021
632.505	18800.426
632.633	18723.277
632.762	18775.489
632.890	18815.489
633.018	18668.809
633.146	18880.277
633.274	18673.617
633.402	18735.383
633.530	18687.383
633.658	18853.085
633.787	18740.000
633.915	18792.766
634.043	18746.851
634.171	18776.043
634.299	18698.702
634.427	18783.426
634.555	18759.660
634.683	18708.128
634.812	18674.851
634.940	18607.043
635.068	18606.574
635.196	18703.660
635.324	18656.809
635.452	18632.915
635.580	18570.404
635.708	18592.489
635.837	18593.383
635.965	18500.872
636.093	18500.532
636.221	18572.106
636.349	18614.766
636.477	18519.830
636.605	18620.340
636.733	18352.106
636.862	18403.064
636.990	18480.894
637.118	18429.532
637.246	18500.702
637.374	18429.191
637.502	18385.085
637.630	18434.191
637.758	18362.979
637.887	18365.532
638.015	18319.149
638.143	18343.128
638.271	18338.787
638.399	18289.468
638.527	18295.000
638.655	18324.340
638.783	18462.681
638.912	18329.106
639.040	18307.340
639.168	18300.000
639.296	18304.957
639.424	18494.383
639.552	18328.702
639.680	18504.723
639.808	18413.638
639.937	18287.596
640.065	18317.021
640.193	18429.511
640.321	18380.532
640.449	18388.404
640.577	18482.234
640.705	18442.170
640.833	18544.957
640.962	18439.383
641.090	18429.723
641.218	18443.298
641.346	18528.404
641.474	18528.617
641.602	18489.128
641.730	18543.553
641.858	18558.447
641.987	18653.617
642.115	18572.830
642.243	18666.213
642.371	18742.000
642.499	18697.362
642.627	18733.553
642.755	18872.043
642.883	18856.000
643.012	18804.787
643.140	18744.936
643.268	18858.596
643.396	18898.809
643.524	19009.021
643.652	18902.979
643.780	18887.979
643.908	18990.787
644.037	19093.340
644.165	18931.830
644.293	18932.298
644.421	19011.660
644.549	19033.830
644.677	18964.830
644.805	19044.830
644.933	18989.255
645.062	19017.830
645.190	19002.021
645.318	19093.191
645.446	19038.660
645.574	19068.128
645.702	19038.213
645.830	19233.532
645.958	19049.702
646.087	19257.170
646.215	19001.872
646.343	19273.851
646.471	19168.383
646.599	19168.468
646.727	19041.319
646.855	19104.787
646.983	19096.979
647.112	19029.298
647.240	19239.426
647.368	19034.191
647.496	19100.277
647.624	19044.660
647.752	19015.340
647.880	19066.447
648.008	19043.596
648.137	18985.149
648.265	18968.681
648.393	19023.489
648.521	18933.128
648.649	18965.255
648.777	19021.426
648.905	18924.383
649.033	18958.702
649.162	18902.404
649.290	18966.872
649.418	18908.383
649.546	18926.191
649.674	18888.085
649.802	18912.894
649.930	18972.723
650.058	18820.043
650.187	18808.936
650.315	18764.000
650.443	18852.128
650.571	18781.894
650.699	18807.617
650.827	18741.596
650.955	18776.426
651.083	18774.255
651.212	18786.872
651.340	18781.170
651.468	18748.723
651.596	18710.830
651.724	18715.383
651.852	18683.277
651.980	18711.915
652.108	18749.830
652.237	18740.617
652.365	18768.298
652.493	18650.532
652.621	18646.787
652.749	18730.426
652.877	18626.702
653.005	18661.170
653.133	18647.191
653.262	18688.936
653.390	18642.043
653.518	18729.043
653.646	18622.553
653.774	18833.170
653.902	18613.128
654.030	18623.617
654.158	18617.213
654.287	18585.936
654.415	18580.149
654.543	18635.426
654.671	18664.170
654.799	18598.234
654.927	18559.362
655.055	18534.340
655.183	18617.681
655.312	18527.957
655.440	18520.936
655.568	18523.957
655.696	18686.255
655.824	18686.745
655.952	18534.191
656.080	18476.340
656.208	18610.574
656.337	18524.809
656.465	18519.702
656.593	18489.511
656.721	18484.574
656.849	18445.511
656.977	18389.681
657.105	18419.957
657.233	18415.596
657.362	18340.745
657.490	18360.532
657.618	18321.362
657.746	18357.255
657.874	18295.128
658.002	18344.298
658.130	18253.191
658.258	18287.660
658.387	18332.362
658.515	18293.213
658.643	18245.468
658.771	18258.191
658.899	18326.277
659.027	18294.660
659.155	18259.319
659.283	18376.085
659.412	18225.106
659.540	18316.000
659.668	18187.660
659.796	18249.468
659.924	18242.021
660.052	18188.787
660.180	18177.681
660.308	18180.277
660.437	18177.213
660.565	18163.319
660.693	18143.830
660.821	18171.915
660.949	18153.340
661.077	18108.362
661.205	18168.043
661.333	18070.277
661.462	18223.745
661.590	18162.319
661.718	18288.766
661.846	18156.872
661.974	18222.936
662.102	18125.106
662.230	18122.234
662.358	18104.766
662.487	18127.574
662.615	18085.787
662.743	18132.915
662.871	18143.553
662.999	18146.149
663.127	18056.574
663.255	18268.383
663.383	18236.064
663.512	18160.617
663.640	18200.106
663.768	18160.617
663.896	18244.085
664.024	18262.511
664.152	18219.468
664.280	18336.064
664.408	18281.362
664.537	18304.255
664.665	18295.830
664.793	18285.298
664.921	18264.532
665.049	18329.936
665.177	18348.681
665.305	18394.043
665.433	18351.170
665.562	18322.681
665.690	18367.553
665.818	18636.702
665.946	18410.064
666.074	18376.149
666.202	18413.489
666.330	18493.170
666.458	18473.128
666.587	18406.638
666.715	18452.660
666.843	18462.979
666.971	18391.489
667.099	18436.213
667.227	18495.340
667.355	18500.489
667.483	18486.298
667.612	18539.170
667.740	18544.255
667.868	18561.809
667.996	18553.149
668.124	18540.319
668.252	18567.213
668.380	18565.106
668.508	18509.447
668.637	18530.511
668.765	18461.979
668.893	18592.106
669.021	18503.489
669.149	18534.553
669.277	18638.851
669.405	18572.532
669.533	18581.681
669.662	18827.255
669.790	18616.787
669.918	18659.851
670.046	18546.213
670.174	18636.894
670.302	18603.319
670.430	18510.638
670.558	18542.106
670.687	18495.404
670.815	18649.787
670.943	18476.191
671.071	18489.106
671.199	18508.362
671.327	18409.979
671.455	18403.787
671.583	18360.915
671.712	18568.085
671.840	18408.000
671.968	18289.894
672.096	18317.617
672.224	18265.043
672.352	18411.021
672.480	18260.362
672.608	18182.809
672.737	18180.787
672.865	18310.936
672.993	18125.298
673.121	18088.894
673.249	18045.745
673.377	17974.404
673.505	17998.021
673.633	17985.106
673.762	17951.936
673.890	17933.447
674.018	18237.021
674.146	17957.213
674.274	17905.255
674.402	18046.979
674.530	17879.617
674.658	17792.128
674.787	17757.745
674.915	17683.085
675.043	17763.979
675.171	17691.809
675.299	17601.426
675.427	17706.830
675.555	17622.426
675.683	17589.894
675.812	17622.000
675.940	17560.638
676.068	17515.851
676.196	17495.979
676.324	17524.043
676.452	17460.340
676.580	17360.064
676.708	17368.532
676.837	17424.149
676.965	17364.766
677.093	17295.213
677.221	17279.638
677.349	17292.894
677.477	17286.638
677.605	17233.660
677.733	17241.085
677.862	17150.553
677.990	17144.766
678.118	17147.702
678.246	17077.489
678.374	17125.681
678.502	17061.298
678.630	17083.255
678.758	17046.617
678.887	17020.872
679.015	17037.660
679.143	16984.489
679.271	16964.936
679.399	16996.149
679.527	16980.553
679.655	16957.723
679.783	17020.340
679.912	16983.766
680.040	16986.064
680.168	16908.213
680.296	16905.191
680.424	16850.362
680.552	16951.319
680.680	16939.021
680.808	16842.681
680.937	16851.596
681.065	16793.447
681.193	16770.362
681.321	16919.787
681.449	16813.957
681.577	16873.191
681.705	16875.447
681.833	16847.957
681.962	16806.277
682.090	16976.255
682.218	16820.404
682.346	16860.745
682.474	16808.362
682.602	16813.489
682.730	16911.936
682.858	16753.702
682.987	16933.766
683.115	16887.851
683.243	16834.617
683.371	16796.830
683.499	16808.617
683.627	16852.319
683.755	16813.426
683.883	17015.447
684.012	16836.915
684.140	16792.213
684.268	16808.723
684.396	16797.723
684.524	16907.191
684.652	16948.191
684.780	16851.702
684.908	16848.170
685.037	16848.170
685.165	16807.064
685.293	16813.596
685.421	16887.979
685.549	16789.702
685.677	16751.064
685.805	16907.553
685.933	16825.447
686.062	16818.383
686.190	16798.277
686.318	16751.085
686.446	16753.000
686.574	16773.681
686.702	16852.043
686.830	16743.234
686.958	16672.298
687.087	16714.574
687.215	16726.511
687.343	16704.064
687.471	16734.340
687.599	16645.745
687.727	16853.298
687.855	16658.809
687.983	16718.340
688.112	16732.128
688.240	16598.787
688.368	16652.149
688.496	16663.872
688.624	16627.447
688.752	16557.851
688.880	16582.532
689.008	16574.957
689.137	16541.064
689.265	16468.277
689.393	16494.638
689.521	16460.277
689.649	16396.915
689.777	16452.277
689.905	16381.362
690.033	16363.149
690.162	16373.213
690.290	16273.745
690.418	16231.149
690.546	16361.787
690.674	16311.255
690.802	16198.298
690.930	16259.000
691.058	16234.681
691.187	16147.830
691.315	16119.255
691.443	16229.872
691.571	16090.128
691.699	16116.277
691.827	16099.255
691.955	16039.404
692.083	15947.830
692.212	16079.979
692.340	15894.170
692.468	15922.149
692.596	15911.809
692.724	16038.745
692.852	15837.106
692.980	15885.766
693.108	15807.872
693.237	15721.106
693.365	15685.489
693.493	15664.362
693.621	15673.617
693.749	15610.787
693.877	15580.213
694.005	15717.532
694.133	15548.489
694.262	15606.957
694.390	15516.170
694.518	15546.894
694.646	15469.340
694.774	15412.298
694.902	15574.681
695.030	15431.234
695.158	15367.957
695.287	15386.702
695.415	15351.489
695.543	15287.574
695.671	15364.277
695.799	15315.702
695.927	15248.936
696.055	15250.681
696.183	15158.149
696.312	15143.426
696.440	15392.277
696.568	15215.277
696.696	15232.894
696.824	15080.362
696.952	15089.128
697.080	15080.872
697.208	14992.872
697.337	15082.043
697.465	15013.660
697.593	14935.489
697.721	14952.277
697.849	14913.106
697.977	14906.851
698.105	14938.362
698.233	14861.851
698.362	14866.362
698.490	14789.000
698.618	14817.745
698.746	14886.128
698.874	14749.596
699.002	14953.851
699.130	14682.064
699.258	14685.766
699.387	14651.596
699.515	14693.234
699.643	14604.000
699.771	14649.426
699.899	14571.021
700.027	14522.043
700.155	14482.851
700.283	14518.596
700.412	14514.170
700.540	14398.681
700.668	14389.447
700.796	14379.511
700.924	14332.553
701.052	14302.128
701.180	14406.362
701.308	14182.766
701.437	14156.426
701.565	14222.128
701.693	14077.660
701.821	14085.043
701.949	14101.362
702.077	14030.809
702.205	13967.319
702.333	13975.447
702.462	13866.553
702.590	13904.553
702.718	13813.617
702.846	13850.851
702.974	13755.830
703.102	13704.106
703.230	13767.043
703.358	13649.809
703.487	13570.383
703.615	13749.787
703.743	13488.128
703.871	13442.213
703.999	13467.532
704.127	13494.426
704.255	13287.170
704.383	13467.681
704.512	13260.106
704.640	13272.766
704.768	13156.319
704.896	13202.383
705.024	13048.489
705.152	13118.340
705.280	13045.340
705.408	12953.106
705.537	12955.617
705.665	12897.255
705.793	12823.340
705.921	12782.064
706.049	12754.957
706.177	12688.043
706.305	12726.043
706.433	12785.447
706.562	12639.489
706.690	12593.340
706.818	12518.915
706.946	12707.660
707.074	12464.447
707.202	12430.681
707.330	12438.447
707.458	12366.489
707.587	12286.106
707.715	12296.319
707.843	12320.043
707.971	12264.723
708.099	12279.191
708.227	12151.766
708.355	12132.426
708.483	12087.170
708.612	12077.043
708.740	12110.681
708.868	12099.957
708.996	12044.596
709.124	12039.426
709.252	11925.085
709.380	11906.255
709.508	11934.191
709.637	11853.277
709.765	11801.574
709.893	11801.085
710.021	11798.106
710.149	11753.851
710.277	11814.553
710.405	11675.000
710.533	11683.638
710.662	11652.213
710.790	11601.574
710.918	11628.638
711.046	11594.957
711.174	11554.809
711.302	11559.362
711.430	11586.702
711.558	11438.809
711.687	11422.681
711.815	11455.809
711.943	11438.383
712.071	11392.383
712.199	11424.426
712.327	11409.851
712.455	11299.638
712.583	11341.596
712.712	11285.723
712.840	11263.489
712.968	11249.936
713.096	11292.447
713.224	11181.362
713.352	11192.149
713.480	11193.426
713.608	11130.872
713.737	11167.383
713.865	11154.085
713.993	11182.936
714.121	11084.000
714.249	11083.872
714.377	11144.957
714.505	11020.426
714.633	11195.426
714.762	11048.957
714.890	10951.064
715.018	10996.319
715.146	10960.234
715.274	10985.170
715.402	11038.383
715.530	10938.489
715.658	10865.426
715.787	10846.170
715.915	10961.766
716.043	10818.404
716.171	10865.574
716.299	10863.277
716.427	10769.043
716.555	10728.511
716.683	10686.553
716.812	10660.936
716.940	10720.043
717.068	10616.872
717.196	10796.872
717.324	10685.447
717.452	10565.128
717.580	10494.447
717.708	10517.064
717.837	10521.319
717.965	10488.255
718.093	10447.489
718.221	10327.383
718.349	10377.702
718.477	10403.915
718.605	10406.128
718.733	10301.979
718.862	10238.872
718.990	10208.447
719.118	10214.383
719.246	10178.106
719.374	10194.787
719.502	10112.426
719.630	10248.255
719.758	10014.489
719.887	9995.404
720.015	10147.021
720.143	9912.468
720.271	9886.723
720.399	9905.915
720.527	9926.255
720.655	9915.234
720.783	9865.489
720.912	9774.638
721.040	9769.277
721.168	9716.596
721.296	9712.191
721.424	9697.723
721.552	9546.340
721.680	9542.170
721.808	9541.426
721.937	9488.979
722.065	9532.532
722.193	9561.213
722.321	9408.915
722.449	9352.021
722.577	9332.255
722.705	9248.574
722.833	9279.298
722.962	9259.085
723.090	9152.681
723.218	9066.489
723.346	9095.936
723.474	9048.064
723.602	9163.511
723.730	9070.809
723.858	9134.298
723.987	9030.957
724.115	9019.851
724.243	8927.574
724.371	8895.191
724.499	8885.021
724.627	8772.426
724.755	8755.979
724.883	8732.340
725.012	8699.596
725.140	8735.426
725.268	8650.617
725.396	8549.553
725.524	8513.383
725.652	8531.064
725.780	8490.277
725.908	8523.681
726.037	8614.298
726.165	8390.149
726.293	8336.702
726.421	8297.596
726.549	8285.638
726.677	8267.979
726.805	8200.255
726.933	8176.766
727.062	8241.894
727.190	8130.574
