0pol_70_90_at_750.00nm_cut_at_984.50Y_01.dat
24.04.2023
10:58:16
cut middle at Y: 984.50
top cursor: 1008 down cursor: 961 mean of: 47 lines , 2560 datapoints
wavelength(nm)	intensity[arb. units]
585.996	12613.574
586.124	12338.426
586.252	12252.660
586.380	12360.872
586.508	12384.277
586.637	12439.489
586.765	12502.106
586.893	12542.809
587.021	12615.213
587.149	12695.468
587.277	12661.128
587.405	12713.766
587.533	12643.340
587.662	12872.234
587.790	12840.468
587.918	12764.787
588.046	12827.064
588.174	12772.957
588.302	12839.064
588.430	12820.362
588.558	12748.532
588.687	12844.511
588.815	12869.745
588.943	12818.277
589.071	12846.362
589.199	12952.809
589.327	12919.957
589.455	12805.660
589.583	12945.936
589.712	13005.106
589.840	12923.809
589.968	12969.362
590.096	12997.383
590.224	13043.383
590.352	13034.872
590.480	13005.234
590.608	13013.936
590.737	13140.681
590.865	13115.553
590.993	13062.106
591.121	13156.298
591.249	13169.234
591.377	13181.383
591.505	13198.426
591.633	13287.277
591.762	13221.745
591.890	13450.745
592.018	13260.255
592.146	13287.447
592.274	13234.426
592.402	13351.234
592.530	13437.532
592.658	13638.298
592.787	13422.511
592.915	13637.723
593.043	13553.660
593.171	13627.553
593.299	13641.043
593.427	13665.745
593.555	13733.596
593.683	13764.106
593.812	13825.723
593.940	13778.723
594.068	13869.149
594.196	13990.319
594.324	14025.106
594.452	14039.426
594.580	14034.596
594.708	14124.872
594.837	14144.447
594.965	14250.979
595.093	14344.064
595.221	14293.298
595.349	14440.426
595.477	14401.064
595.605	14482.213
595.733	14462.426
595.862	14664.957
595.990	14548.404
596.118	14570.191
596.246	14741.426
596.374	14606.957
596.502	14736.362
596.630	14759.000
596.758	14760.766
596.887	14777.553
597.015	14804.319
597.143	14883.532
597.271	14838.872
597.399	14858.106
597.527	14854.617
597.655	14933.511
597.783	14894.298
597.912	14903.383
598.040	14974.936
598.168	15006.638
598.296	14977.596
598.424	14971.106
598.552	15024.723
598.680	14981.574
598.808	15195.170
598.937	15116.149
599.065	15046.936
599.193	15116.213
599.321	15201.234
599.449	15099.936
599.577	15099.149
599.705	15203.638
599.833	15138.170
599.962	15253.170
600.090	15257.532
600.218	15308.128
600.346	15414.000
600.474	15381.723
600.602	15351.830
600.730	15441.277
600.858	15507.447
600.987	15680.043
601.115	15604.085
601.243	15707.681
601.371	15748.362
601.499	15734.766
601.627	15864.532
601.755	15842.489
601.883	16029.191
602.012	16065.745
602.140	16080.936
602.268	16286.617
602.396	16241.979
602.524	16371.191
602.652	16327.128
602.780	16417.553
602.908	16478.745
603.037	16582.106
603.165	16619.532
603.293	16707.979
603.421	16796.128
603.549	16797.426
603.677	16992.447
603.805	17030.532
603.933	17140.979
604.062	17227.596
604.190	17239.596
604.318	17335.000
604.446	17344.255
604.574	17481.957
604.702	17577.000
604.830	17579.426
604.958	17668.681
605.087	17773.723
605.215	17768.638
605.343	17859.830
605.471	18012.894
605.599	18014.213
605.727	18086.170
605.855	18196.915
605.983	18152.170
606.112	18295.915
606.240	18276.936
606.368	18309.809
606.496	18565.596
606.624	18396.596
606.752	18522.894
606.880	18604.957
607.008	18770.064
607.137	18691.213
607.265	18597.426
607.393	18639.191
607.521	18771.766
607.649	18724.255
607.777	18777.894
607.905	18866.298
608.033	18821.936
608.162	18884.681
608.290	18925.660
608.418	18896.191
608.546	19015.809
608.674	18991.255
608.802	19007.766
608.930	19037.723
609.058	19117.149
609.187	19158.213
609.315	19190.787
609.443	19205.511
609.571	19287.319
609.699	19276.872
609.827	19322.957
609.955	19331.362
610.083	19367.277
610.212	19333.170
610.340	19353.957
610.468	19487.723
610.596	19536.043
610.724	19532.638
610.852	19547.191
610.980	19628.489
611.108	19688.170
611.237	19644.064
611.365	19722.574
611.493	19734.553
611.621	19910.043
611.749	19915.638
611.877	19995.723
612.005	20006.191
612.133	20121.553
612.262	20204.681
612.390	20235.957
612.518	20282.170
612.646	20458.511
612.774	20411.553
612.902	20520.532
613.030	20602.234
613.158	20863.362
613.287	20799.340
613.415	20820.383
613.543	20787.574
613.671	20904.489
613.799	21091.660
613.927	20993.553
614.055	21057.532
614.183	21265.298
614.312	21206.234
614.440	21400.553
614.568	21416.404
614.696	21552.468
614.824	21681.255
614.952	21714.021
615.080	21756.319
615.208	21897.064
615.337	21918.766
615.465	22072.872
615.593	22212.574
615.721	22417.170
615.849	22509.255
615.977	22589.766
616.105	22618.766
616.233	22692.149
616.362	22786.894
616.490	22777.213
616.618	22917.170
616.746	22975.766
616.874	23127.085
617.002	23163.681
617.130	23263.702
617.258	23424.915
617.387	23373.511
617.515	23436.745
617.643	23470.830
617.771	23583.043
617.899	23658.936
618.027	23719.936
618.155	23849.638
618.283	23795.553
618.412	23938.106
618.540	24041.532
618.668	24012.851
618.796	24186.447
618.924	24264.511
619.052	24269.000
619.180	24376.468
619.308	24442.532
619.437	24499.979
619.565	24479.830
619.693	24485.085
619.821	24591.553
619.949	24554.660
620.077	24742.404
620.205	24776.702
620.333	24894.957
620.462	24841.000
620.590	25055.447
620.718	24965.170
620.846	25129.426
620.974	25114.830
621.102	25197.213
621.230	25259.085
621.358	25454.106
621.487	25303.149
621.615	25282.489
621.743	25591.809
621.871	25516.362
621.999	25656.851
622.127	25644.936
622.255	25734.064
622.383	25723.532
622.512	25756.596
622.640	25917.000
622.768	25838.936
622.896	25946.043
623.024	26014.617
623.152	26102.043
623.280	26115.851
623.408	26050.468
623.537	26147.511
623.665	26236.936
623.793	26341.745
623.921	26323.574
624.049	26389.021
624.177	26446.064
624.305	26572.149
624.433	26552.170
624.562	26674.064
624.690	26657.830
624.818	26823.404
624.946	26998.085
625.074	26861.277
625.202	26914.043
625.330	26949.936
625.458	27021.298
625.587	27086.638
625.715	27123.340
625.843	27300.447
625.971	27355.830
626.099	27388.128
626.227	27487.745
626.355	27464.936
626.483	27513.660
626.612	27592.638
626.740	27761.213
626.868	27780.149
626.996	27835.511
627.124	27878.149
627.252	27940.213
627.380	28097.064
627.508	28232.043
627.637	28136.936
627.765	28258.277
627.893	28473.638
628.021	28475.681
628.149	28834.830
628.277	28988.915
628.405	29038.468
628.533	28898.574
628.662	28908.106
628.790	29028.702
628.918	29060.745
629.046	29096.255
629.174	29429.979
629.302	29760.979
629.430	29638.340
629.558	29639.277
629.687	29661.170
629.815	29786.979
629.943	29886.532
630.071	30030.660
630.199	30152.723
630.327	30172.851
630.455	30323.170
630.583	30507.574
630.712	30446.574
630.840	30559.532
630.968	30745.128
631.096	30727.574
631.224	30904.447
631.352	30889.979
631.480	30946.191
631.608	31124.000
631.737	31262.362
631.865	31380.745
631.993	31317.298
632.121	31543.255
632.249	31543.723
632.377	31630.681
632.505	31619.404
632.633	31648.745
632.762	31713.170
632.890	31872.936
633.018	31781.149
633.146	32083.872
633.274	31904.574
633.402	32077.681
633.530	32058.128
633.658	32208.702
633.787	32095.085
633.915	32231.596
634.043	32240.191
634.171	32310.277
634.299	32260.426
634.427	32301.362
634.555	32424.787
634.683	32366.830
634.812	32396.766
634.940	32436.234
635.068	32456.489
635.196	32505.936
635.324	32520.106
635.452	32580.319
635.580	32601.681
635.708	32581.298
635.837	32666.745
635.965	32578.596
636.093	32591.681
636.221	32660.404
636.349	32726.915
636.477	32638.000
636.605	32868.085
636.733	32709.915
636.862	32706.085
636.990	32798.809
637.118	32796.723
637.246	32769.957
637.374	32750.511
637.502	32873.894
637.630	32792.106
637.758	32839.979
637.887	32892.617
638.015	32947.085
638.143	32967.255
638.271	32942.617
638.399	32904.766
638.527	32981.298
638.655	33069.745
638.783	33203.702
638.912	33191.936
639.040	33139.915
639.168	33218.298
639.296	33183.000
639.424	33389.617
639.552	33284.936
639.680	33535.638
639.808	33427.638
639.937	33484.511
640.065	33476.489
640.193	33615.340
640.321	33666.489
640.449	33679.085
640.577	33913.766
640.705	33767.149
640.833	33915.362
640.962	33914.553
641.090	33953.383
641.218	34078.468
641.346	34167.638
641.474	34143.489
641.602	34253.170
641.730	34344.638
641.858	34438.936
641.987	34506.000
642.115	34491.574
642.243	34624.255
642.371	34717.085
642.499	34749.000
642.627	34858.170
642.755	34982.681
642.883	35028.340
643.012	35022.915
643.140	35138.638
643.268	35117.298
643.396	35278.830
643.524	35471.234
643.652	35452.511
643.780	35459.426
643.908	35538.915
644.037	35573.638
644.165	35684.064
644.293	35710.830
644.421	35751.128
644.549	35841.191
644.677	35734.277
644.805	35912.596
644.933	35872.468
645.062	36029.553
645.190	35972.234
645.318	36127.489
645.446	36001.149
645.574	36151.404
645.702	36037.851
645.830	36353.064
645.958	36194.000
646.087	36400.064
646.215	36237.191
646.343	36467.319
646.471	36312.617
646.599	36314.723
646.727	36395.830
646.855	36262.936
646.983	36402.723
647.112	36371.830
647.240	36500.000
647.368	36315.191
647.496	36427.830
647.624	36404.106
647.752	36456.723
647.880	36395.255
648.008	36364.894
648.137	36349.894
648.265	36369.574
648.393	36353.787
648.521	36364.489
648.649	36302.638
648.777	36346.532
648.905	36278.979
649.033	36324.787
649.162	36325.213
649.290	36367.043
649.418	36157.447
649.546	36250.787
649.674	36297.638
649.802	36220.766
649.930	36404.745
650.058	36267.021
650.187	36177.638
650.315	36258.085
650.443	36258.872
650.571	36189.383
650.699	36251.404
650.827	36199.340
650.955	36193.553
651.083	36171.277
651.212	36118.064
651.340	36215.936
651.468	36163.766
651.596	36112.234
651.724	36086.532
651.852	36102.000
651.980	36018.447
652.108	36133.128
652.237	36068.596
652.365	36117.723
652.493	36039.872
652.621	35995.511
652.749	36134.872
652.877	36001.702
653.005	35932.915
653.133	36015.000
653.262	35946.426
653.390	35939.170
653.518	36076.043
653.646	35997.362
653.774	36051.234
653.902	35945.660
654.030	35881.426
654.158	35891.043
654.287	35798.426
654.415	35809.234
654.543	35886.532
654.671	35808.702
654.799	35856.362
654.927	35767.426
655.055	35729.426
655.183	35725.383
655.312	35828.383
655.440	35781.660
655.568	35604.000
655.696	35770.255
655.824	35775.511
655.952	35707.638
656.080	35614.085
656.208	35631.851
656.337	35490.277
656.465	35532.213
656.593	35480.021
656.721	35463.213
656.849	35481.277
656.977	35369.702
657.105	35343.638
657.233	35305.021
657.362	35346.277
657.490	35250.468
657.618	35238.894
657.746	35243.213
657.874	35163.596
658.002	35170.872
658.130	35131.830
658.258	35000.915
658.387	35125.809
658.515	34980.638
658.643	35009.851
658.771	34979.149
658.899	34948.383
659.027	34873.574
659.155	34877.128
659.283	34949.021
659.412	34826.085
659.540	34819.170
659.668	34687.085
659.796	34640.362
659.924	34689.064
660.052	34671.872
660.180	34590.787
660.308	34558.085
660.437	34599.809
660.565	34525.766
660.693	34470.362
660.821	34425.617
660.949	34350.213
661.077	34392.681
661.205	34448.638
661.333	34389.298
661.462	34457.085
661.590	34294.766
661.718	34418.660
661.846	34300.213
661.974	34442.809
662.102	34187.872
662.230	34205.170
662.358	34150.660
662.487	34251.021
662.615	34107.191
662.743	34098.064
662.871	34164.277
662.999	34123.447
663.127	33999.915
663.255	34208.021
663.383	34127.319
663.512	34144.809
663.640	34122.660
663.768	34118.638
663.896	34135.213
664.024	34103.149
664.152	34052.340
664.280	34051.191
664.408	34058.851
664.537	34025.766
664.665	34083.085
664.793	33891.426
664.921	33943.745
665.049	33959.319
665.177	33937.404
665.305	33987.915
665.433	33952.234
665.562	33877.234
665.690	33948.702
665.818	34103.021
665.946	33960.128
666.074	33886.489
666.202	33880.681
666.330	33927.468
666.458	33853.681
666.587	33782.489
666.715	33813.234
666.843	33768.660
666.971	33785.872
667.099	33757.064
667.227	33703.681
667.355	33770.574
667.483	33721.213
667.612	33698.723
667.740	33631.553
667.868	33726.064
667.996	33639.574
668.124	33656.340
668.252	33588.149
668.380	33607.511
668.508	33547.234
668.637	33597.255
668.765	33436.319
668.893	33456.915
669.021	33396.191
669.149	33472.957
669.277	33439.277
669.405	33244.340
669.533	33268.362
669.662	33508.277
669.790	33211.660
669.918	33211.766
670.046	33100.851
670.174	33133.085
670.302	33174.106
670.430	32952.957
670.558	32922.936
670.687	32825.617
670.815	32899.234
670.943	32778.745
671.071	32640.468
671.199	32542.745
671.327	32457.681
671.455	32491.128
671.583	32353.511
671.712	32427.255
671.840	32324.872
671.968	32130.681
672.096	32074.298
672.224	31990.277
672.352	32076.766
672.480	31943.660
672.608	31721.766
672.737	31656.574
672.865	31799.021
672.993	31529.383
673.121	31489.532
673.249	31333.723
673.377	31260.936
673.505	31200.511
673.633	31111.809
673.762	30935.532
673.890	30883.213
674.018	31042.106
674.146	30711.532
674.274	30681.532
674.402	30850.830
674.530	30534.319
674.658	30373.021
674.787	30348.957
674.915	30230.681
675.043	30195.766
675.171	30153.128
675.299	29966.298
675.427	29874.979
675.555	29842.723
675.683	29751.468
675.812	29642.106
675.940	29542.191
676.068	29505.532
676.196	29441.404
676.324	29378.021
676.452	29254.809
676.580	29077.936
676.708	29084.021
676.837	29068.255
676.965	28987.766
677.093	28896.532
677.221	28741.809
677.349	28728.660
677.477	28599.085
677.605	28496.043
677.733	28517.319
677.862	28358.660
677.990	28333.511
678.118	28241.362
678.246	28173.043
678.374	28179.766
678.502	28013.660
678.630	27994.489
678.758	27929.702
678.887	27766.830
679.015	27760.723
679.143	27729.574
679.271	27591.681
679.399	27581.830
679.527	27551.340
679.655	27440.426
679.783	27494.426
679.912	27392.766
680.040	27329.319
680.168	27246.489
680.296	27186.298
680.424	27090.766
680.552	27047.021
680.680	27202.830
680.808	26941.872
680.937	26870.723
681.065	26809.532
681.193	26820.191
681.321	26725.277
681.449	26784.234
681.577	26666.702
681.705	26597.404
681.833	26601.894
681.962	26487.404
682.090	26586.851
682.218	26408.511
682.346	26306.574
682.474	26323.043
682.602	26242.511
682.730	26261.553
682.858	26114.574
682.987	26149.872
683.115	26155.149
683.243	26014.149
683.371	25952.809
683.499	25987.319
683.627	25953.489
683.755	25927.957
683.883	25987.511
684.012	25777.021
684.140	25656.894
684.268	25715.979
684.396	25633.745
684.524	25603.319
684.652	25636.723
684.780	25549.766
684.908	25493.574
685.037	25475.213
685.165	25328.851
685.293	25299.574
685.421	25308.277
685.549	25230.255
685.677	25197.553
685.805	25237.340
685.933	25084.064
686.062	24944.128
686.190	24931.872
686.318	24979.809
686.446	24783.255
686.574	24791.851
686.702	24862.915
686.830	24713.723
686.958	24637.957
687.087	24596.638
687.215	24567.234
687.343	24439.340
687.471	24352.872
687.599	24291.532
687.727	24470.809
687.855	24204.128
687.983	24239.766
688.112	24204.936
688.240	24034.894
688.368	23940.468
688.496	23913.234
688.624	23865.787
688.752	23767.277
688.880	23652.894
689.008	23589.404
689.137	23516.766
689.265	23443.702
689.393	23418.021
689.521	23238.000
689.649	23208.319
689.777	23144.255
689.905	23021.957
690.033	22983.574
690.162	22886.787
690.290	22791.872
690.418	22755.596
690.546	22706.596
690.674	22598.191
690.802	22477.000
690.930	22473.404
691.058	22379.957
691.187	22209.362
691.315	22198.170
691.443	22114.553
691.571	22028.787
691.699	22021.574
691.827	21942.809
691.955	21720.489
692.083	21691.213
692.212	21718.617
692.340	21512.277
692.468	21455.426
692.596	21416.191
692.724	21452.809
692.852	21160.872
692.980	21178.979
693.108	21055.404
693.237	20967.404
693.365	20810.213
693.493	20754.702
693.621	20701.383
693.749	20611.787
693.877	20530.553
694.005	20571.723
694.133	20381.064
694.262	20337.979
694.390	20223.000
694.518	20167.255
694.646	20060.234
694.774	19985.979
694.902	19992.085
695.030	19860.404
695.158	19692.319
695.287	19679.170
695.415	19674.170
695.543	19472.468
695.671	19596.213
695.799	19385.426
695.927	19311.298
696.055	19211.787
696.183	19152.404
696.312	19060.064
696.440	19182.660
696.568	18986.106
696.696	18992.766
696.824	18766.362
696.952	18703.745
697.080	18670.234
697.208	18556.213
697.337	18612.319
697.465	18500.894
697.593	18327.021
697.721	18347.702
697.849	18223.489
697.977	18182.277
698.105	18150.447
698.233	18020.872
698.362	17955.894
698.490	17929.532
698.618	17820.660
698.746	17805.319
698.874	17687.702
699.002	17835.681
699.130	17548.106
699.258	17468.319
699.387	17340.511
699.515	17344.830
699.643	17236.894
699.771	17212.596
699.899	17090.404
700.027	17086.745
700.155	16923.532
700.283	16889.915
700.412	16842.766
700.540	16720.511
700.668	16663.447
700.796	16535.468
700.924	16532.383
701.052	16412.894
701.180	16419.915
701.308	16263.191
701.437	16106.574
701.565	16076.362
701.693	15972.809
701.821	15936.872
701.949	15882.851
702.077	15844.553
702.205	15680.383
702.333	15636.000
702.462	15480.681
702.590	15437.894
702.718	15356.766
702.846	15217.979
702.974	15176.766
703.102	15107.872
703.230	15128.298
703.358	14956.213
703.487	14857.362
703.615	14928.340
703.743	14662.234
703.871	14602.979
703.999	14576.021
704.127	14581.149
704.255	14314.574
704.383	14451.511
704.512	14232.128
704.640	14162.106
704.768	14014.851
704.896	14013.787
705.024	13865.979
705.152	13826.553
705.280	13675.468
705.408	13614.383
705.537	13598.851
705.665	13494.553
705.793	13398.298
705.921	13298.000
706.049	13256.936
706.177	13104.043
706.305	13099.426
706.433	13060.532
706.562	12936.085
706.690	12830.574
706.818	12732.106
706.946	12917.830
707.074	12635.043
707.202	12577.851
707.330	12533.766
707.458	12412.447
707.587	12308.745
707.715	12225.170
707.843	12293.106
707.971	12208.617
708.099	12112.894
708.227	12016.383
708.355	11916.468
708.483	11823.511
708.612	11774.979
708.740	11803.809
708.868	11768.830
708.996	11638.489
709.124	11592.277
709.252	11497.872
709.380	11416.489
709.508	11470.787
709.637	11295.043
709.765	11260.426
709.893	11281.872
710.021	11125.851
710.149	11074.277
710.277	11060.894
710.405	10938.894
710.533	10948.702
710.662	10847.362
710.790	10822.596
710.918	10778.128
711.046	10767.809
711.174	10601.489
711.302	10623.234
711.430	10618.085
711.558	10444.255
711.687	10426.362
711.815	10393.383
711.943	10340.702
712.071	10270.787
712.199	10281.596
712.327	10186.617
712.455	10109.362
712.583	10148.383
712.712	10024.319
712.840	9986.894
712.968	9912.766
713.096	9920.234
713.224	9817.191
713.352	9800.574
713.480	9755.787
713.608	9682.149
713.737	9664.426
713.865	9619.085
713.993	9581.277
714.121	9496.043
714.249	9462.489
714.377	9545.638
714.505	9381.170
714.633	9524.596
714.762	9327.234
714.890	9198.660
715.018	9243.766
715.146	9132.660
715.274	9163.319
715.402	9218.362
715.530	9098.745
715.658	8976.468
715.787	8894.702
715.915	9052.213
716.043	8833.000
716.171	8872.043
716.299	8837.362
716.427	8721.489
716.555	8667.660
716.683	8649.447
716.812	8593.128
716.940	8533.213
717.068	8403.957
717.196	8582.106
717.324	8531.277
717.452	8363.553
717.580	8305.723
717.708	8251.681
717.837	8268.277
717.965	8135.404
718.093	8132.574
718.221	8033.723
718.349	8051.362
718.477	8050.809
718.605	8005.234
718.733	7888.085
718.862	7831.553
718.990	7763.404
719.118	7763.702
719.246	7678.149
719.374	7714.234
719.502	7641.447
719.630	7724.787
719.758	7485.170
719.887	7441.043
720.015	7604.809
720.143	7304.468
720.271	7292.234
720.399	7306.404
720.527	7295.979
720.655	7242.404
720.783	7212.681
720.912	7049.277
721.040	7085.872
721.168	6970.340
721.296	7020.021
721.424	6938.596
721.552	6830.340
721.680	6831.532
721.808	6792.234
721.937	6729.702
722.065	6797.447
722.193	6778.383
722.321	6603.149
722.449	6530.745
722.577	6511.000
722.705	6389.681
722.833	6424.596
722.962	6425.681
723.090	6302.638
723.218	6230.043
723.346	6243.809
723.474	6222.213
723.602	6274.489
723.730	6183.170
723.858	6272.511
723.987	6070.383
724.115	6070.723
724.243	5968.149
724.371	5938.000
724.499	5943.723
724.627	5782.426
724.755	5785.745
724.883	5729.106
725.012	5725.830
725.140	5714.723
725.268	5659.489
725.396	5512.957
725.524	5502.149
725.652	5513.596
725.780	5464.702
725.908	5507.957
726.037	5565.787
726.165	5355.362
726.293	5280.404
726.421	5244.511
726.549	5202.362
726.677	5198.255
726.805	5138.213
726.933	5077.532
727.062	5122.596
727.190	5102.298
727.318	4997.106
727.446	4995.106
727.574	4976.489
