0pol_90_140_at_750.00nm_cut_at_984.50Y_01.dat
24.04.2023
10:46:35
cut middle at Y: 984.50
top cursor: 1008 down cursor: 961 mean of: 47 lines , 2560 datapoints
wavelength(nm)	intensity[arb. units]
585.996	11481.489
586.124	11238.532
586.252	11132.511
586.380	11189.851
586.508	11245.213
586.637	11307.681
586.765	11395.468
586.893	11355.894
587.021	11415.468
587.149	11484.170
587.277	11418.319
587.405	11539.574
587.533	11431.596
587.662	11569.936
587.790	11587.404
587.918	11457.362
588.046	11521.149
588.174	11423.170
588.302	11513.298
588.430	11480.128
588.558	11464.234
588.687	11464.404
588.815	11471.915
588.943	11447.936
589.071	11451.234
589.199	11502.021
589.327	11447.617
589.455	11451.277
589.583	11520.617
589.712	11508.383
589.840	11443.936
589.968	11478.426
590.096	11471.021
590.224	11492.468
590.352	11430.702
590.480	11514.596
590.608	11502.213
590.737	11530.149
590.865	11596.213
590.993	11535.362
591.121	11545.617
591.249	11566.787
591.377	11518.596
591.505	11546.681
591.633	11570.872
591.762	11521.468
591.890	11685.894
592.018	11526.660
592.146	11493.468
592.274	11520.638
592.402	11542.745
592.530	11588.298
592.658	11803.426
592.787	11649.766
592.915	11799.404
593.043	11645.830
593.171	11723.574
593.299	11750.596
593.427	11744.255
593.555	11801.638
593.683	11805.596
593.812	11793.234
593.940	11820.745
594.068	11858.936
594.196	11921.745
594.324	11934.468
594.452	11938.468
594.580	11968.000
594.708	11948.894
594.837	11934.362
594.965	12081.128
595.093	12096.723
595.221	12087.319
595.349	12246.468
595.477	12185.553
595.605	12132.298
595.733	12186.064
595.862	12410.319
595.990	12168.021
596.118	12226.319
596.246	12402.043
596.374	12288.723
596.502	12310.277
596.630	12310.638
596.758	12300.128
596.887	12332.064
597.015	12303.851
597.143	12302.489
597.271	12309.128
597.399	12311.468
597.527	12339.128
597.655	12307.787
597.783	12257.872
597.912	12292.532
598.040	12289.532
598.168	12399.404
598.296	12293.277
598.424	12331.596
598.552	12290.617
598.680	12255.468
598.808	12378.426
598.937	12318.553
599.065	12255.000
599.193	12380.021
599.321	12376.298
599.449	12308.426
599.577	12255.298
599.705	12336.787
599.833	12275.319
599.962	12227.404
600.090	12343.702
600.218	12370.149
600.346	12395.128
600.474	12319.511
600.602	12346.340
600.730	12391.489
600.858	12440.213
600.987	12559.574
601.115	12459.043
601.243	12457.213
601.371	12496.574
601.499	12569.809
601.627	12590.574
601.755	12587.404
601.883	12699.043
602.012	12725.043
602.140	12661.128
602.268	12803.787
602.396	12754.128
602.524	12885.553
602.652	12785.404
602.780	12843.426
602.908	12879.660
603.037	12908.766
603.165	12931.255
603.293	12979.702
603.421	13014.404
603.549	13096.340
603.677	13184.511
603.805	13122.809
603.933	13187.787
604.062	13254.404
604.190	13252.191
604.318	13267.234
604.446	13277.511
604.574	13339.340
604.702	13345.809
604.830	13393.447
604.958	13437.362
605.087	13446.468
605.215	13426.128
605.343	13457.872
605.471	13526.085
605.599	13593.809
605.727	13563.830
605.855	13623.362
605.983	13563.426
606.112	13608.617
606.240	13592.723
606.368	13634.021
606.496	13816.064
606.624	13637.638
606.752	13666.277
606.880	13770.851
607.008	13900.596
607.137	13833.404
607.265	13632.894
607.393	13673.489
607.521	13773.085
607.649	13718.404
607.777	13658.043
607.905	13710.106
608.033	13735.383
608.162	13676.723
608.290	13704.234
608.418	13672.979
608.546	13692.362
608.674	13730.638
608.802	13664.404
608.930	13644.128
609.058	13687.319
609.187	13752.383
609.315	13764.851
609.443	13656.447
609.571	13731.596
609.699	13665.043
609.827	13699.957
609.955	13681.468
610.083	13612.362
610.212	13598.574
610.340	13601.660
610.468	13729.766
610.596	13683.511
610.724	13670.872
610.852	13618.128
610.980	13633.362
611.108	13731.277
611.237	13605.936
611.365	13687.191
611.493	13536.638
611.621	13634.191
611.749	13692.489
611.877	13737.766
612.005	13740.574
612.133	13802.702
612.262	13784.170
612.390	13824.298
612.518	13808.766
612.646	13906.787
612.774	13884.723
612.902	13911.319
613.030	13899.404
613.158	14084.170
613.287	14009.383
613.415	13988.234
613.543	13948.128
613.671	13948.447
613.799	14053.298
613.927	13932.766
614.055	13981.830
614.183	14122.702
614.312	14009.043
614.440	14117.787
614.568	14080.277
614.696	14119.064
614.824	14321.511
614.952	14208.872
615.080	14188.915
615.208	14238.617
615.337	14286.000
615.465	14361.021
615.593	14445.447
615.721	14620.809
615.849	14592.553
615.977	14616.894
616.105	14549.340
616.233	14565.489
616.362	14646.851
616.490	14551.745
616.618	14650.894
616.746	14678.979
616.874	14718.553
617.002	14687.851
617.130	14694.511
617.258	14844.553
617.387	14724.830
617.515	14670.809
617.643	14678.596
617.771	14699.574
617.899	14753.128
618.027	14743.064
618.155	14827.936
618.283	14717.000
618.412	14811.106
618.540	14789.766
618.668	14772.106
618.796	14765.851
618.924	14905.170
619.052	14744.574
619.180	14774.872
619.308	14797.553
619.437	14755.213
619.565	14741.723
619.693	14714.149
619.821	14692.660
619.949	14715.000
620.077	14765.638
620.205	14786.426
620.333	14745.149
620.462	14778.000
620.590	14828.851
620.718	14638.277
620.846	14771.213
620.974	14719.830
621.102	14723.383
621.230	14666.766
621.358	14838.149
621.487	14636.319
621.615	14694.638
621.743	14707.000
621.871	14682.128
621.999	14702.043
622.127	14586.617
622.255	14628.851
622.383	14575.532
622.512	14563.447
622.640	14811.170
622.768	14566.340
622.896	14609.787
623.024	14595.702
623.152	14698.787
623.280	14634.362
623.408	14502.745
623.537	14590.596
623.665	14459.681
623.793	14547.383
623.921	14509.553
624.049	14489.936
624.177	14459.957
624.305	14489.766
624.433	14515.064
624.562	14536.894
624.690	14517.383
624.818	14556.532
624.946	14644.085
625.074	14530.468
625.202	14476.106
625.330	14459.106
625.458	14542.128
625.587	14480.872
625.715	14473.404
625.843	14635.191
625.971	14534.723
626.099	14577.915
626.227	14490.021
626.355	14471.702
626.483	14602.596
626.612	14476.170
626.740	14514.957
626.868	14535.809
626.996	14494.723
627.124	14470.723
627.252	14511.872
627.380	14603.787
627.508	14584.936
627.637	14500.213
627.765	14538.021
627.893	14624.766
628.021	14627.362
628.149	14890.894
628.277	14962.745
628.405	14911.043
628.533	14638.787
628.662	14666.574
628.790	14620.468
628.918	14761.894
629.046	14724.447
629.174	14848.128
629.302	15055.766
629.430	14863.128
629.558	14768.596
629.687	14776.660
629.815	14778.830
629.943	14810.660
630.071	14825.766
630.199	14867.851
630.327	14829.106
630.455	14843.170
630.583	14984.553
630.712	14886.447
630.840	14955.128
630.968	14967.617
631.096	14866.511
631.224	14920.255
631.352	14922.043
631.480	14952.128
631.608	14991.766
631.737	15094.979
631.865	15121.043
631.993	14958.191
632.121	15118.149
632.249	15077.894
632.377	14992.830
632.505	15046.426
632.633	14856.702
632.762	14928.830
632.890	15006.766
633.018	14803.255
633.146	14941.298
633.274	14822.830
633.402	14896.830
633.530	14785.340
633.658	14940.362
633.787	14759.766
633.915	14802.872
634.043	14720.851
634.171	14741.404
634.299	14715.617
634.427	14716.596
634.555	14695.426
634.683	14606.000
634.812	14639.851
634.940	14569.000
635.068	14527.596
635.196	14524.191
635.324	14478.064
635.452	14553.277
635.580	14389.809
635.708	14417.277
635.837	14357.000
635.965	14340.106
636.093	14259.277
636.221	14252.745
636.349	14336.383
636.477	14227.915
636.605	14355.957
636.733	14106.383
636.862	14104.936
636.990	14111.936
637.118	14072.191
637.246	14099.255
637.374	13962.213
637.502	14002.362
637.630	13925.383
637.758	13933.383
637.887	13889.511
638.015	13817.851
638.143	13845.149
638.271	13796.511
638.399	13770.277
638.527	13721.191
638.655	13749.830
638.783	13872.043
638.912	13724.553
639.040	13712.660
639.168	13726.511
639.296	13643.149
639.424	13784.574
639.552	13641.702
639.680	13804.128
639.808	13659.489
639.937	13613.532
640.065	13626.787
640.193	13696.298
640.321	13620.638
640.449	13635.128
640.577	13641.064
640.705	13550.149
640.833	13708.511
640.962	13600.277
641.090	13593.064
641.218	13563.872
641.346	13569.957
641.474	13630.404
641.602	13553.660
641.730	13578.809
641.858	13603.979
641.987	13620.064
642.115	13616.936
642.243	13605.766
642.371	13593.489
642.499	13590.745
642.627	13667.809
642.755	13692.809
642.883	13698.277
643.012	13620.340
643.140	13627.745
643.268	13635.617
643.396	13627.681
643.524	13739.128
643.652	13613.085
643.780	13572.170
643.908	13602.532
644.037	13669.638
644.165	13606.532
644.293	13596.894
644.421	13589.553
644.549	13638.043
644.677	13549.362
644.805	13533.170
644.933	13473.064
645.062	13454.596
645.190	13525.000
645.318	13549.936
645.446	13511.340
645.574	13526.213
645.702	13398.447
645.830	13659.532
645.958	13407.447
646.087	13629.851
646.215	13361.298
646.343	13554.872
646.471	13404.489
646.599	13387.596
646.727	13373.340
646.855	13312.064
646.983	13289.957
647.112	13287.085
647.240	13407.532
647.368	13258.000
647.496	13226.170
647.624	13138.213
647.752	13116.191
647.880	13127.277
648.008	13092.872
648.137	13070.021
648.265	13035.404
648.393	13031.298
648.521	13012.170
648.649	12937.426
648.777	12960.617
648.905	12816.340
649.033	12835.234
649.162	12810.511
649.290	12821.043
649.418	12765.021
649.546	12741.021
649.674	12714.319
649.802	12649.340
649.930	12774.957
650.058	12569.957
650.187	12558.277
650.315	12529.319
650.443	12610.702
650.571	12484.553
650.699	12533.255
650.827	12404.894
650.955	12467.447
651.083	12424.553
651.212	12414.362
651.340	12423.957
651.468	12347.043
651.596	12268.979
651.724	12286.298
651.852	12273.872
651.980	12207.170
652.108	12315.702
652.237	12209.277
652.365	12255.766
652.493	12174.617
652.621	12109.745
652.749	12164.766
652.877	12029.426
653.005	12083.404
653.133	12033.957
653.262	12067.170
653.390	11979.255
653.518	12088.255
653.646	11984.106
653.774	12082.660
653.902	11901.447
654.030	11902.426
654.158	11779.128
654.287	11830.489
654.415	11773.468
654.543	11850.723
654.671	11793.213
654.799	11752.064
654.927	11631.809
655.055	11697.106
655.183	11661.787
655.312	11674.489
655.440	11659.574
655.568	11559.979
655.696	11634.809
655.824	11664.447
655.952	11583.702
656.080	11463.979
656.208	11574.532
656.337	11434.298
656.465	11403.766
656.593	11455.085
656.721	11331.277
656.849	11377.979
656.977	11298.745
657.105	11273.936
657.233	11205.681
657.362	11180.426
657.490	11098.362
657.618	11117.723
657.746	11116.234
657.874	11024.340
658.002	11054.766
658.130	10989.574
658.258	10960.426
658.387	10974.617
658.515	10957.468
658.643	10960.638
658.771	10899.809
658.899	10890.766
659.027	10863.851
659.155	10840.319
659.283	10990.894
659.412	10713.830
659.540	10863.596
659.668	10728.745
659.796	10704.298
659.924	10721.553
660.052	10650.085
660.180	10634.170
660.308	10577.383
660.437	10610.213
660.565	10579.447
660.693	10522.426
660.821	10486.106
660.949	10513.617
661.077	10471.957
661.205	10448.319
661.333	10468.915
661.462	10498.319
661.590	10460.234
661.718	10576.851
661.846	10444.340
661.974	10513.702
662.102	10336.532
662.230	10360.043
662.358	10277.915
662.487	10307.404
662.615	10281.106
662.743	10209.213
662.871	10218.213
662.999	10175.255
663.127	10167.170
663.255	10292.064
663.383	10255.574
663.512	10140.383
663.640	10236.106
663.768	10163.957
663.896	10180.809
664.024	10176.596
664.152	10151.745
664.280	10174.213
664.408	10169.936
664.537	10173.851
664.665	10109.787
664.793	10031.362
664.921	10006.809
665.049	10029.255
665.177	10018.553
665.305	10002.319
665.433	9965.894
665.562	9943.213
665.690	9945.638
665.818	10094.234
665.946	9968.638
666.074	9897.894
666.202	9914.106
666.330	9924.319
666.458	9862.638
666.587	9806.149
666.715	9818.723
666.843	9833.553
666.971	9774.426
667.099	9806.511
667.227	9771.745
667.355	9754.170
667.483	9750.511
667.612	9723.106
667.740	9740.660
667.868	9763.319
667.996	9707.894
668.124	9624.404
668.252	9623.149
668.380	9652.213
668.508	9585.660
668.637	9652.128
668.765	9552.000
668.893	9604.383
669.021	9515.723
669.149	9555.915
669.277	9542.213
669.405	9447.617
669.533	9527.213
669.662	9692.532
669.790	9530.830
669.918	9516.064
670.046	9415.617
670.174	9498.830
670.302	9442.426
670.430	9376.298
670.558	9427.064
670.687	9342.383
670.815	9476.809
670.943	9297.830
671.071	9272.085
671.199	9273.617
671.327	9244.979
671.455	9176.149
671.583	9205.277
671.712	9279.723
671.840	9171.660
671.968	9103.043
672.096	9064.489
672.224	9073.234
672.352	9169.936
672.480	9014.021
672.608	8903.234
672.737	8902.915
672.865	9044.426
672.993	8869.255
673.121	8787.596
673.249	8756.489
673.377	8754.319
673.505	8707.213
673.633	8679.957
673.762	8629.277
673.890	8624.809
674.018	8909.191
674.146	8581.979
674.274	8583.681
674.402	8712.340
674.530	8567.681
674.658	8476.532
674.787	8450.149
674.915	8413.404
675.043	8491.085
675.171	8399.489
675.299	8301.255
675.427	8333.702
675.555	8247.277
675.683	8247.809
675.812	8213.660
675.940	8217.979
676.068	8133.277
676.196	8120.426
676.324	8132.596
676.452	8052.957
676.580	7978.234
676.708	8026.723
676.837	8045.766
676.965	7959.638
677.093	7912.766
677.221	7849.489
677.349	7918.213
677.477	7926.702
677.605	7854.681
677.733	7856.447
677.862	7703.021
677.990	7701.723
678.118	7718.957
678.246	7699.170
678.374	7671.809
678.502	7616.277
678.630	7604.362
678.758	7577.830
678.887	7561.745
679.015	7553.830
679.143	7524.213
679.271	7504.660
679.399	7500.319
679.527	7448.426
679.655	7399.936
679.783	7464.383
679.912	7458.617
680.040	7437.426
680.168	7376.426
680.296	7388.298
680.424	7320.872
680.552	7336.319
680.680	7387.170
680.808	7294.574
680.937	7212.617
681.065	7187.043
681.193	7240.106
681.321	7280.298
681.449	7196.234
681.577	7216.532
681.705	7215.128
681.833	7163.404
681.962	7142.553
682.090	7292.894
682.218	7097.106
682.346	7068.362
682.474	7118.532
682.602	7087.362
682.730	7119.426
682.858	6989.149
682.987	7098.128
683.115	7060.128
683.243	6968.064
683.371	6986.383
683.499	7014.915
683.627	7020.255
683.755	7006.170
683.883	7089.404
684.012	6976.596
684.140	6914.298
684.268	6882.617
684.396	6907.468
684.524	6907.574
684.652	6942.255
684.780	6853.851
684.908	6853.511
685.037	6806.766
685.165	6749.489
685.293	6760.596
685.421	6818.766
685.549	6693.319
685.677	6728.255
685.805	6862.277
685.933	6747.255
686.062	6635.489
686.190	6621.723
686.318	6650.213
686.446	6577.085
686.574	6584.745
686.702	6682.298
686.830	6547.532
686.958	6521.702
687.087	6537.574
687.215	6542.851
687.343	6491.787
687.471	6426.021
687.599	6398.277
687.727	6606.936
687.855	6414.787
687.983	6458.149
688.112	6499.915
688.240	6364.255
688.368	6334.319
688.496	6378.915
688.624	6393.489
688.752	6276.936
688.880	6316.702
689.008	6249.447
689.137	6246.766
689.265	6212.340
689.393	6176.043
689.521	6156.213
689.649	6166.000
689.777	6169.915
689.905	6082.957
690.033	6093.638
690.162	6080.979
690.290	6057.553
690.418	6039.532
690.546	6146.106
690.674	6084.660
690.802	5950.809
690.930	5984.766
691.058	6005.468
691.187	5939.234
691.315	5894.255
691.443	5996.170
691.571	5865.128
691.699	5926.766
691.827	5927.468
691.955	5825.000
692.083	5813.915
692.212	5929.149
692.340	5803.660
692.468	5813.574
692.596	5791.745
692.724	5874.532
692.852	5721.617
692.980	5791.596
693.108	5722.447
693.237	5651.851
693.365	5655.617
693.493	5596.170
693.621	5614.681
693.749	5606.085
693.877	5583.128
694.005	5660.106
694.133	5523.936
694.262	5566.383
694.390	5490.915
694.518	5512.915
694.646	5484.085
694.774	5486.511
694.902	5607.745
695.030	5535.638
695.158	5383.277
695.287	5404.660
695.415	5392.723
695.543	5362.213
695.671	5467.277
695.799	5360.553
695.927	5347.021
696.055	5294.723
696.183	5292.532
696.312	5237.787
696.440	5422.638
696.568	5367.234
696.696	5284.681
696.824	5186.660
696.952	5165.106
697.080	5207.298
697.208	5118.702
697.337	5222.362
697.465	5123.872
697.593	5076.000
697.721	5125.447
697.849	5070.255
697.977	5070.043
698.105	5113.340
698.233	5019.532
698.362	5017.830
698.490	5005.213
698.618	5012.915
698.746	5091.787
698.874	5004.170
699.002	5131.766
699.130	4932.553
699.258	4953.766
699.387	4887.787
699.515	4905.830
699.643	4868.191
699.771	4907.957
699.899	4864.745
700.027	4868.277
700.155	4765.915
700.283	4840.745
700.412	4822.000
700.540	4778.830
700.668	4800.809
700.796	4708.745
700.924	4752.723
701.052	4712.362
701.180	4822.979
701.308	4680.255
701.437	4618.702
701.565	4591.787
701.693	4580.553
701.821	4583.043
701.949	4581.021
702.077	4603.872
702.205	4511.809
702.333	4530.660
702.462	4491.830
702.590	4495.745
702.718	4426.298
702.846	4440.085
702.974	4403.660
703.102	4415.362
703.230	4506.809
703.358	4409.213
703.487	4337.723
703.615	4476.255
703.743	4327.170
703.871	4308.809
703.999	4293.809
704.127	4372.383
704.255	4168.851
704.383	4374.745
704.512	4230.043
704.640	4210.021
704.768	4093.000
704.896	4204.085
705.024	4077.064
705.152	4192.574
705.280	4090.511
705.408	4042.191
705.537	4037.426
705.665	3995.340
705.793	3968.745
705.921	3925.702
706.049	3953.383
706.177	3908.894
706.305	3927.404
706.433	4015.489
706.562	3907.574
706.690	3840.915
706.818	3832.255
706.946	4041.702
707.074	3828.043
707.202	3783.064
707.330	3830.511
707.458	3787.681
707.587	3754.766
707.715	3750.468
707.843	3768.851
707.971	3746.830
708.099	3759.298
708.227	3665.851
708.355	3665.000
708.483	3656.787
708.612	3609.255
708.740	3653.830
708.868	3697.255
708.996	3595.702
709.124	3647.830
709.252	3567.787
709.380	3529.596
709.508	3588.468
709.637	3484.404
709.765	3521.915
709.893	3520.106
710.021	3513.149
710.149	3487.936
710.277	3518.255
710.405	3442.404
710.533	3454.745
710.662	3434.191
710.790	3412.319
710.918	3421.170
711.046	3405.830
711.174	3388.191
711.302	3380.085
711.430	3478.170
711.558	3317.447
711.687	3318.468
711.815	3354.191
711.943	3303.128
712.071	3325.149
712.199	3358.383
712.327	3300.340
712.455	3244.979
712.583	3297.426
712.712	3294.979
712.840	3243.149
712.968	3237.915
713.096	3290.745
713.224	3174.553
713.352	3219.915
713.480	3157.000
713.608	3190.596
713.737	3170.660
713.865	3177.213
713.993	3217.085
714.121	3138.872
714.249	3133.000
714.377	3204.936
714.505	3141.191
714.633	3275.319
714.762	3150.213
714.890	3073.064
715.018	3103.255
715.146	3096.681
715.274	3136.340
715.402	3269.574
715.530	3147.447
715.658	3036.745
715.787	3002.809
715.915	3225.426
716.043	3005.021
716.171	3072.596
716.299	3091.766
716.427	3020.191
716.555	2982.170
716.683	2993.319
716.812	2951.064
716.940	2983.702
717.068	2908.681
717.196	3111.298
717.324	3052.617
717.452	2952.638
717.580	2894.213
717.708	2888.681
717.837	2963.468
717.965	2854.404
718.093	2900.213
718.221	2826.426
718.349	2882.532
718.477	2878.957
718.605	2906.106
718.733	2788.234
718.862	2842.404
718.990	2777.319
719.118	2785.638
719.246	2747.574
719.374	2850.128
719.502	2764.128
719.630	2909.191
719.758	2722.128
719.887	2709.298
720.015	2913.213
720.143	2668.574
720.271	2680.936
720.399	2709.106
720.527	2733.468
720.655	2746.234
720.783	2761.979
720.912	2632.149
721.040	2655.915
721.168	2622.404
721.296	2682.596
721.424	2613.213
721.552	2562.702
721.680	2553.191
721.808	2623.766
721.937	2606.830
722.065	2674.277
722.193	2680.957
722.321	2560.511
722.449	2556.170
722.577	2532.170
722.705	2519.149
722.833	2570.021
722.962	2570.191
723.090	2520.085
723.218	2513.489
723.346	2510.404
723.474	2493.277
723.602	2585.872
723.730	2563.255
723.858	2606.851
723.987	2534.511
724.115	2497.723
724.243	2509.723
724.371	2517.255
724.499	2516.596
724.627	2510.979
724.755	2478.191
724.883	2470.234
725.012	2449.085
725.140	2451.553
725.268	2444.468
725.396	2437.213
725.524	2401.915
725.652	2414.809
725.780	2396.383
725.908	2387.723
726.037	2390.787
726.165	2383.872
726.293	2318.447
726.421	2345.574
726.549	2345.766
726.677	2324.617
726.805	2345.979
726.933	2327.851
727.062	2290.872
727.190	2310.596
727.318	2279.362
727.446	2303.319
727.574	2277.936
727.702	2277.723
727.830	2251.638
727.958	2270.043
728.087	2266.404
728.215	2245.957
728.343	2228.915
728.471	2225.553
728.599	2219.106
728.727	2229.298
728.855	2208.574
728.983	2197.106
729.112	2199.340
729.240	2163.745
729.368	2178.915
729.496	2173.915
729.624	2173.298
729.752	2163.872
729.880	2159.723
730.008	2156.191
730.137	2131.362
730.265	2157.064
730.393	2119.979
