90pol_70_90_at_750.00nm_cut_at_984.50Y_01.dat
24.04.2023
10:58:38
cut middle at Y: 984.50
top cursor: 1008 down cursor: 961 mean of: 47 lines , 2560 datapoints
wavelength(nm)	intensity[arb. units]
585.996	17949.319
586.124	17423.468
586.252	17290.447
586.380	17328.596
586.508	17377.298
586.637	17504.872
586.765	17539.574
586.893	17583.574
587.021	17614.128
587.149	17726.660
587.277	17690.723
587.405	17826.809
587.533	17821.319
587.662	17923.979
587.790	17886.000
587.918	17877.489
588.046	17937.489
588.174	17807.468
588.302	18037.915
588.430	17979.872
588.558	17912.979
588.687	17998.936
588.815	18024.191
588.943	18015.191
589.071	18021.106
589.199	18100.106
589.327	18081.447
589.455	18035.553
589.583	18179.766
589.712	18186.021
589.840	18177.340
589.968	18145.894
590.096	18162.894
590.224	18203.894
590.352	18234.298
590.480	18194.872
590.608	18240.043
590.737	18315.170
590.865	18325.106
590.993	18255.830
591.121	18379.532
591.249	18364.106
591.377	18374.043
591.505	18376.617
591.633	18476.723
591.762	18437.170
591.890	18660.043
592.018	18515.064
592.146	18577.106
592.274	18564.277
592.402	18625.064
592.530	18669.532
592.658	18917.511
592.787	18764.191
592.915	18926.596
593.043	18886.489
593.171	18942.128
593.299	18995.106
593.427	19095.681
593.555	19190.149
593.683	19162.723
593.812	19271.723
593.940	19274.255
594.068	19369.660
594.196	19566.681
594.324	19580.043
594.452	19587.021
594.580	19674.404
594.708	19703.702
594.837	19732.468
594.965	19876.532
595.093	20015.617
595.221	19978.298
595.349	20199.596
595.477	20136.234
595.605	20202.000
595.733	20179.489
595.862	20549.638
595.990	20384.128
596.118	20488.553
596.246	20701.298
596.374	20663.574
596.502	20691.660
596.630	20666.468
596.758	20737.489
596.887	20800.404
597.015	20855.915
597.143	20926.000
597.271	20941.872
597.399	20955.851
597.527	20938.426
597.655	21062.404
597.783	21041.106
597.912	21124.468
598.040	21101.638
598.168	21159.085
598.296	21189.702
598.424	21171.277
598.552	21186.234
598.680	21222.340
598.808	21346.000
598.937	21290.894
599.065	21269.787
599.193	21348.319
599.321	21332.213
599.449	21265.872
599.577	21307.404
599.705	21363.021
599.833	21357.255
599.962	21411.383
600.090	21486.574
600.218	21523.447
600.346	21537.660
600.474	21486.511
600.602	21656.596
600.730	21708.957
600.858	21788.574
600.987	21995.447
601.115	21886.149
601.243	22053.021
601.371	22071.702
601.499	22145.021
601.627	22340.596
601.755	22286.723
601.883	22457.787
602.012	22567.574
602.140	22548.894
602.268	22776.596
602.396	22754.894
602.524	22952.170
602.652	22970.894
602.780	23149.319
602.908	23214.128
603.037	23395.489
603.165	23509.957
603.293	23583.106
603.421	23721.170
603.549	23845.596
603.677	24009.106
603.805	24003.085
603.933	24223.128
604.062	24381.191
604.190	24481.298
604.318	24680.255
604.446	24745.085
604.574	24858.660
604.702	25045.128
604.830	25106.404
604.958	25264.468
605.087	25347.277
605.215	25522.447
605.343	25614.660
605.471	25715.638
605.599	25841.319
605.727	25867.596
605.855	25971.085
605.983	26077.532
606.112	26153.574
606.240	26299.426
606.368	26391.000
606.496	26549.936
606.624	26527.234
606.752	26609.426
606.880	26746.915
607.008	26851.255
607.137	26874.511
607.265	26730.468
607.393	26855.745
607.521	26995.128
607.649	26923.383
607.777	26964.213
607.905	26999.404
608.033	27034.766
608.162	27018.170
608.290	27096.064
608.418	27127.404
608.546	27178.915
608.674	27224.915
608.802	27179.170
608.930	27217.021
609.058	27267.340
609.187	27348.298
609.315	27355.894
609.443	27396.681
609.571	27495.191
609.699	27415.043
609.827	27565.766
609.955	27515.745
610.083	27564.702
610.212	27586.872
610.340	27638.553
610.468	27764.936
610.596	27806.383
610.724	27916.957
610.852	27831.277
610.980	27903.128
611.108	27999.596
611.237	27989.489
611.365	28072.872
611.493	28117.447
611.621	28255.191
611.749	28347.574
611.877	28521.617
612.005	28571.532
612.133	28681.277
612.262	28834.383
612.390	28885.936
612.518	28967.574
612.646	29182.404
612.774	29198.745
612.902	29413.553
613.030	29571.915
613.158	29737.255
613.287	29828.340
613.415	29818.894
613.543	29828.340
613.671	29912.213
613.799	30195.957
613.927	30048.617
614.055	30280.277
614.183	30483.149
614.312	30493.191
614.440	30598.064
614.568	30667.809
614.696	30792.957
614.824	31035.213
614.952	31099.447
615.080	31247.723
615.208	31330.170
615.337	31462.702
615.465	31644.255
615.593	31983.511
615.721	32041.340
615.849	32322.894
615.977	32320.915
616.105	32441.170
616.233	32442.596
616.362	32583.979
616.490	32652.936
616.618	32734.213
616.746	32869.340
616.874	33056.149
617.002	33029.787
617.130	33098.851
617.258	33418.447
617.387	33355.617
617.515	33411.234
617.643	33559.511
617.771	33551.915
617.899	33696.085
618.027	33771.702
618.155	33901.936
618.283	33940.128
618.412	34059.149
618.540	34135.915
618.668	34216.660
618.796	34343.170
618.924	34523.787
619.052	34501.617
619.180	34562.191
619.308	34681.213
619.437	34772.106
619.565	34676.319
619.693	34816.489
619.821	34909.723
619.949	35005.426
620.077	35096.085
620.205	35223.596
620.333	35339.383
620.462	35448.702
620.590	35422.723
620.718	35440.766
620.846	35560.532
620.974	35602.340
621.102	35655.766
621.230	35766.723
621.358	35883.255
621.487	35833.872
621.615	35863.021
621.743	36066.447
621.871	36029.787
621.999	36184.681
622.127	36160.872
622.255	36273.702
622.383	36255.787
622.512	36292.596
622.640	36542.255
622.768	36363.915
622.896	36482.511
623.024	36596.574
623.152	36650.191
623.280	36651.426
623.408	36677.447
623.537	36706.191
623.665	36752.787
623.793	36859.723
623.921	36838.809
624.049	36882.362
624.177	36870.787
624.305	37048.638
624.433	37058.915
624.562	37134.191
624.690	37125.000
624.818	37314.000
624.946	37430.660
625.074	37321.489
625.202	37312.702
625.330	37356.617
625.458	37437.149
625.587	37446.915
625.715	37451.085
625.843	37661.745
625.971	37708.660
626.099	37726.532
626.227	37765.596
626.355	37710.787
626.483	37985.447
626.612	37914.191
626.740	37982.277
626.868	38116.617
626.996	38100.362
627.124	38181.936
627.252	38330.191
627.380	38389.447
627.508	38474.319
627.637	38478.277
627.765	38547.936
627.893	38716.766
628.021	38843.957
628.149	39170.277
628.277	39341.532
628.405	39359.468
628.533	39158.596
628.662	39231.660
628.790	39309.681
628.918	39404.064
629.046	39552.234
629.174	39783.809
629.302	40104.830
629.430	40085.085
629.558	40092.596
629.687	40117.085
629.815	40233.766
629.943	40284.255
630.071	40391.298
630.199	40550.957
630.327	40667.787
630.455	40764.213
630.583	40863.894
630.712	40947.574
630.840	41083.702
630.968	41119.234
631.096	41227.830
631.224	41366.723
631.352	41278.532
631.480	41459.979
631.608	41496.064
631.737	41653.745
631.865	41670.468
631.993	41793.447
632.121	41886.681
632.249	41915.957
632.377	41920.894
632.505	42065.660
632.633	41971.936
632.762	41958.255
632.890	42096.787
633.018	41965.149
633.146	42274.489
633.274	42075.213
633.402	42177.851
633.530	42156.277
633.658	42340.255
633.787	42224.404
633.915	42205.830
634.043	42234.383
634.171	42300.426
634.299	42336.532
634.427	42340.255
634.555	42302.894
634.683	42206.149
634.812	42282.340
634.940	42300.255
635.068	42264.915
635.196	42193.000
635.324	42222.766
635.452	42101.426
635.580	42186.447
635.708	42159.872
635.837	42166.149
635.965	42114.511
636.093	42094.936
636.221	42080.149
636.349	42085.489
636.477	41966.936
636.605	42073.830
636.733	41923.489
636.862	41913.787
636.990	41860.851
637.118	41836.021
637.246	41868.447
637.374	41898.660
637.502	41815.596
637.630	41839.255
637.758	41789.234
637.887	41764.255
638.015	41665.681
638.143	41660.170
638.271	41652.234
638.399	41591.000
638.527	41616.043
638.655	41608.809
638.783	41774.851
638.912	41634.255
639.040	41533.404
639.168	41715.574
639.296	41576.830
639.424	41744.553
639.552	41690.766
639.680	41734.553
639.808	41696.936
639.937	41649.106
640.065	41560.511
640.193	41738.532
640.321	41734.000
640.449	41627.234
640.577	41751.043
640.705	41781.000
640.833	41771.553
640.962	41781.574
641.090	41820.745
641.218	41759.511
641.346	41773.936
641.474	41868.043
641.602	41849.106
641.730	41898.447
641.858	41929.043
641.987	41913.553
642.115	41997.340
642.243	42023.426
642.371	42083.191
642.499	42113.234
642.627	42186.851
642.755	42210.979
642.883	42287.957
643.012	42222.128
643.140	42283.043
643.268	42276.809
643.396	42288.255
643.524	42404.149
643.652	42423.064
643.780	42428.787
643.908	42392.681
644.037	42459.340
644.165	42471.489
644.293	42470.851
644.421	42532.979
644.549	42465.170
644.677	42476.702
644.805	42465.298
644.933	42448.021
645.062	42496.128
645.190	42489.426
645.318	42628.681
645.446	42456.809
645.574	42469.319
645.702	42468.745
645.830	42503.723
645.958	42317.660
646.087	42591.468
646.215	42252.809
646.343	42572.723
646.471	42269.766
646.599	42275.979
646.727	42268.702
646.855	42200.894
646.983	42160.468
647.112	42048.085
647.240	42230.170
647.368	41988.064
647.496	41986.362
647.624	41916.340
647.752	41797.149
647.880	41793.234
648.008	41684.787
648.137	41698.596
648.265	41632.128
648.393	41550.617
648.521	41573.362
648.649	41468.298
648.777	41379.702
648.905	41306.681
649.033	41187.638
649.162	41118.362
649.290	41010.468
649.418	40900.234
649.546	40968.830
649.674	40859.532
649.802	40744.191
649.930	40827.894
650.058	40672.000
650.187	40602.660
650.315	40528.468
650.443	40425.957
650.571	40340.979
650.699	40333.340
650.827	40269.106
650.955	40172.660
651.083	40065.170
651.212	40083.000
651.340	39899.234
651.468	39962.000
651.596	39776.106
651.724	39794.723
651.852	39631.298
651.980	39511.723
652.108	39594.851
652.237	39479.149
652.365	39391.234
652.493	39266.191
652.621	39171.085
652.749	39263.489
652.877	39050.809
653.005	39006.617
653.133	38990.489
653.262	38895.830
653.390	38854.468
653.518	38838.447
653.646	38693.574
653.774	38778.766
653.902	38529.277
654.030	38531.787
654.158	38412.766
654.287	38308.617
654.415	38317.787
654.543	38293.936
654.671	38121.277
654.799	38019.404
654.927	37940.553
655.055	37874.213
655.183	37776.404
655.312	37759.021
655.440	37689.383
655.568	37588.957
655.696	37593.043
655.824	37553.532
655.952	37417.362
656.080	37259.319
656.208	37299.340
656.337	37109.574
656.465	37055.426
656.593	36960.830
656.721	36754.532
656.849	36787.532
656.977	36603.894
657.105	36554.447
657.233	36485.660
657.362	36390.298
657.490	36188.702
657.618	36116.106
657.746	36088.830
657.874	35998.766
658.002	35917.191
658.130	35736.787
658.258	35659.766
658.387	35614.574
658.515	35427.617
658.643	35396.128
658.771	35363.851
658.899	35227.064
659.027	35125.489
659.155	35176.277
659.283	35135.574
659.412	34863.766
659.540	34876.830
659.668	34657.404
659.796	34590.085
659.924	34580.660
660.052	34423.851
660.180	34370.191
660.308	34239.702
660.437	34191.511
660.565	34123.511
660.693	34033.191
660.821	33941.851
660.949	33758.702
661.077	33781.234
661.205	33684.851
661.333	33606.064
661.462	33659.489
661.590	33451.681
661.718	33545.043
661.846	33334.340
661.974	33383.468
662.102	33139.532
662.230	33065.511
662.358	32996.000
662.487	32889.128
662.615	32903.383
662.743	32893.426
662.871	32752.213
662.999	32738.106
663.127	32668.191
663.255	32695.106
663.383	32540.681
663.512	32464.362
663.640	32468.468
663.768	32442.617
663.896	32376.170
664.024	32398.851
664.152	32343.660
664.280	32327.766
664.408	32240.404
664.537	32234.553
664.665	32084.426
664.793	32077.915
664.921	32019.149
665.049	31978.596
665.177	31891.085
665.305	31946.638
665.433	31774.106
665.562	31740.851
665.690	31689.660
665.818	31872.000
665.946	31686.787
666.074	31561.021
666.202	31589.213
666.330	31575.149
666.458	31511.766
666.587	31331.830
666.715	31334.447
666.843	31345.170
666.971	31289.809
667.099	31240.787
667.227	31195.298
667.355	31107.021
667.483	31107.511
667.612	31000.085
667.740	31019.447
667.868	30987.489
667.996	30917.255
668.124	30813.106
668.252	30785.298
668.380	30734.043
668.508	30664.787
668.637	30609.191
668.765	30555.979
668.893	30387.383
669.021	30357.936
669.149	30325.681
669.277	30276.213
669.405	30157.787
669.533	30064.298
669.662	30244.277
669.790	30025.574
669.918	29968.574
670.046	29831.234
670.174	29774.894
670.302	29739.064
670.430	29569.426
670.558	29467.809
670.687	29376.872
670.815	29376.596
670.943	29225.723
671.071	29089.106
671.199	29132.979
671.327	28879.553
671.455	28784.255
671.583	28733.426
671.712	28795.298
671.840	28572.000
671.968	28416.787
672.096	28398.106
672.224	28234.894
672.352	28282.128
672.480	28082.830
672.608	27836.000
672.737	27811.043
672.865	27765.447
672.993	27580.638
673.121	27421.340
673.249	27370.468
673.377	27272.809
673.505	27135.511
673.633	26991.021
673.762	26883.149
673.890	26761.404
674.018	26976.553
674.146	26616.894
674.274	26419.936
674.402	26561.532
674.530	26276.787
674.658	26185.830
674.787	26125.702
674.915	25918.489
675.043	25975.511
675.171	25873.787
675.299	25672.957
675.427	25599.149
675.555	25388.234
675.683	25364.213
675.812	25259.277
675.940	25233.383
676.068	25094.319
676.196	24984.596
676.324	24945.191
676.452	24777.936
676.580	24709.000
676.708	24612.447
676.837	24537.021
676.965	24423.894
677.093	24323.660
677.221	24246.787
677.349	24189.872
677.477	24096.085
677.605	23956.106
677.733	23881.362
677.862	23783.128
677.990	23665.830
678.118	23606.553
678.246	23563.660
678.374	23487.830
678.502	23297.702
678.630	23339.660
678.758	23183.936
678.887	23080.872
679.015	22953.021
679.143	22927.745
679.271	22783.894
679.399	22831.936
679.527	22671.021
679.655	22594.213
679.783	22571.894
679.912	22567.851
680.040	22418.660
680.168	22365.447
680.296	22271.851
680.424	22325.255
680.552	22204.170
680.680	22161.702
680.808	22147.468
680.937	21957.043
681.065	21866.553
681.193	21834.617
681.321	21787.915
681.449	21743.617
681.577	21721.681
681.705	21675.340
681.833	21585.021
681.962	21440.362
682.090	21560.809
682.218	21292.106
682.346	21302.404
682.474	21303.426
682.602	21251.511
682.730	21280.489
682.858	21114.766
682.987	21162.447
683.115	21086.000
683.243	21040.979
683.371	21002.660
683.499	20936.000
683.627	20943.702
683.755	20923.468
683.883	20967.872
684.012	20778.830
684.140	20680.702
684.268	20619.957
684.396	20623.830
684.524	20596.596
684.652	20604.574
684.780	20521.660
684.908	20403.170
685.037	20383.085
685.165	20374.404
685.293	20257.723
685.421	20251.511
685.549	20178.340
685.677	20155.894
685.805	20219.681
685.933	20106.319
686.062	19937.106
686.190	19894.681
686.318	19924.170
686.446	19812.766
686.574	19698.979
686.702	19732.660
686.830	19590.277
686.958	19518.851
687.087	19542.851
687.215	19531.681
687.343	19432.787
687.471	19374.553
687.599	19229.766
687.727	19433.872
687.855	19235.851
687.983	19157.851
688.112	19105.702
688.240	19065.574
688.368	18951.149
688.496	18909.681
688.624	18873.085
688.752	18792.447
688.880	18751.404
689.008	18666.787
689.137	18590.787
689.265	18523.319
689.393	18452.170
689.521	18410.894
689.649	18337.021
689.777	18264.149
689.905	18247.830
690.033	18156.277
690.162	18065.745
690.290	18034.255
690.418	17963.553
690.546	17979.957
690.674	17915.979
690.802	17747.936
690.930	17713.000
691.058	17671.489
691.187	17531.851
691.315	17588.362
691.443	17496.766
691.571	17369.000
691.699	17343.851
691.827	17338.638
691.955	17239.638
692.083	17158.021
692.212	17199.404
692.340	16966.085
692.468	16893.149
692.596	16897.468
692.724	16952.234
692.852	16715.085
692.980	16758.851
693.108	16638.809
693.237	16540.447
693.365	16504.000
693.493	16405.574
693.621	16333.787
693.749	16250.277
693.877	16198.213
694.005	16264.340
694.133	16090.872
694.262	16032.489
694.390	15901.340
694.518	15941.340
694.646	15855.745
694.774	15833.149
694.902	15861.170
695.030	15764.830
695.158	15532.489
695.287	15599.851
695.415	15527.894
695.543	15392.574
695.671	15516.596
695.799	15357.298
695.927	15297.426
696.055	15207.979
696.183	15172.766
696.312	15083.128
696.440	15197.851
696.568	15114.638
696.696	15078.830
696.824	14896.681
696.952	14828.106
697.080	14789.574
697.208	14671.298
697.337	14776.766
697.465	14606.979
697.593	14504.681
697.721	14511.574
697.849	14455.787
697.977	14395.191
698.105	14354.638
698.233	14232.979
698.362	14242.553
698.490	14187.362
698.618	14086.979
698.746	14143.532
698.874	14006.426
699.002	14214.915
699.130	13886.128
699.258	13881.872
699.387	13759.340
699.515	13776.149
699.643	13665.532
699.771	13678.596
699.899	13544.319
700.027	13490.000
700.155	13428.362
700.283	13405.064
700.412	13370.979
700.540	13279.447
700.668	13282.787
700.796	13130.021
700.924	13064.128
701.052	13051.213
701.180	13110.660
701.308	12895.043
701.437	12821.596
701.565	12748.362
701.693	12706.660
701.821	12653.128
701.949	12585.617
702.077	12562.872
702.205	12426.362
702.333	12380.872
702.462	12308.170
702.590	12276.915
702.718	12157.447
702.846	12107.404
702.974	12055.213
703.102	12025.298
703.230	12048.085
703.358	11911.383
703.487	11766.426
703.615	11940.702
703.743	11697.723
703.871	11654.809
703.999	11568.468
704.127	11650.638
704.255	11389.106
704.383	11537.830
704.512	11314.872
704.640	11256.638
704.768	11157.447
704.896	11191.106
705.024	11033.553
705.152	11081.596
705.280	10931.957
705.408	10841.979
705.537	10813.745
705.665	10745.468
705.793	10656.319
705.921	10617.468
706.049	10602.106
706.177	10445.872
706.305	10498.064
706.433	10487.638
706.562	10365.660
706.690	10231.000
706.818	10171.638
706.946	10402.404
707.074	10098.553
707.202	10012.936
707.330	10067.489
707.458	9965.128
707.587	9847.787
707.715	9821.596
707.843	9815.957
707.971	9810.106
708.099	9751.128
708.227	9635.149
708.355	9576.851
708.483	9570.298
708.612	9493.085
708.740	9484.511
708.868	9481.851
708.996	9392.681
709.124	9383.234
709.252	9278.681
709.380	9188.723
709.508	9191.809
709.637	9129.064
709.765	9131.404
709.893	9082.149
710.021	9054.957
710.149	8980.936
710.277	8959.851
710.405	8842.702
710.533	8820.617
710.662	8812.979
710.790	8728.106
710.918	8763.362
711.046	8668.149
711.174	8647.723
711.302	8618.702
711.430	8681.681
711.558	8492.277
711.687	8455.957
711.815	8474.915
711.943	8448.574
712.071	8392.766
712.199	8408.766
712.327	8347.000
712.455	8282.681
712.583	8285.383
712.712	8189.830
712.840	8167.851
712.968	8140.532
713.096	8141.553
713.224	8039.064
713.352	8100.085
713.480	7975.979
713.608	7953.383
713.737	7947.128
713.865	7905.894
713.993	7940.447
714.121	7830.170
714.249	7828.149
714.377	7843.596
714.505	7771.596
714.633	7903.723
714.762	7739.723
714.890	7628.213
715.018	7679.511
715.146	7604.021
715.274	7630.447
715.402	7663.213
715.530	7548.872
715.658	7472.957
715.787	7413.574
715.915	7568.021
716.043	7380.936
716.171	7380.085
716.299	7393.277
716.427	7300.213
716.555	7239.319
716.683	7206.191
716.812	7183.000
716.940	7216.617
717.068	7118.489
717.196	7229.511
717.324	7150.830
717.452	7050.340
717.580	6952.213
717.708	6931.277
717.837	6979.362
717.965	6853.894
718.093	6871.064
718.221	6817.170
718.349	6805.553
718.477	6766.277
718.605	6783.489
718.733	6679.489
718.862	6656.830
718.990	6564.447
719.118	6600.957
719.246	6535.340
719.374	6579.128
719.502	6503.872
719.630	6593.000
719.758	6413.447
719.887	6347.532
720.015	6495.362
720.143	6253.660
720.271	6262.106
720.399	6289.277
720.527	6254.128
720.655	6250.191
720.783	6217.170
720.912	6112.596
721.040	6077.021
721.168	6033.957
721.296	6067.085
721.424	5977.234
721.552	5897.128
721.680	5850.745
721.808	5887.043
721.937	5819.468
722.065	5906.106
722.193	5901.064
722.321	5726.000
722.449	5701.021
722.577	5629.404
722.705	5569.872
722.833	5597.000
722.962	5578.128
723.090	5500.617
723.218	5429.106
723.346	5465.468
723.474	5401.213
723.602	5496.213
723.730	5445.532
723.858	5504.766
723.987	5357.468
724.115	5336.149
724.243	5242.851
724.371	5214.957
724.499	5209.106
724.627	5119.021
724.755	5083.745
724.883	5074.362
725.012	5040.851
725.140	5056.234
725.268	4978.957
725.396	4907.170
725.524	4839.043
725.652	4884.043
725.780	4845.106
725.908	4910.021
726.037	4956.404
726.165	4727.872
726.293	4702.894
726.421	4692.872
726.549	4644.681
726.677	4634.681
726.805	4614.277
726.933	4539.489
727.062	4582.617
727.190	4543.574
727.318	4472.851
727.446	4480.957
727.574	4436.851
727.702	4552.383
727.830	4360.234
727.958	4433.979
