referenz led_at_750.00nm_cut_at_984.50Y_02.dat
24.04.2023
12:24:31
cut middle at Y: 984.50
top cursor: 1008 down cursor: 961 mean of: 47 lines , 2560 datapoints
wavelength(nm)	intensity[arb. units]
585.996	32770.617
586.124	31816.851
586.252	31440.170
586.380	31517.213
586.508	31556.851
586.637	31580.872
586.765	31694.085
586.893	31660.894
587.021	31628.000
587.149	31718.745
587.277	31637.532
587.405	31689.404
587.533	31577.447
587.662	31785.617
587.790	31611.702
587.918	31596.000
588.046	31617.766
588.174	31487.851
588.302	31643.723
588.430	31453.553
588.558	31419.043
588.687	31485.957
588.815	31297.596
588.943	31247.319
589.071	31151.447
589.199	31220.745
589.327	31167.426
589.455	31020.894
589.583	31151.532
589.712	31041.128
589.840	30943.532
589.968	30980.809
590.096	30950.043
590.224	30891.596
590.352	30896.851
590.480	30835.894
590.608	30847.255
590.737	30864.298
590.865	30762.851
590.993	30707.149
591.121	30780.170
591.249	30709.383
591.377	30796.298
591.505	30638.553
591.633	30728.106
591.762	30725.000
591.890	30763.319
592.018	30760.340
592.146	30706.681
592.274	30762.340
592.402	30726.149
592.530	30736.340
592.658	30941.723
592.787	30769.362
592.915	30952.532
593.043	30910.255
593.171	30869.021
593.299	30954.830
593.427	30983.489
593.555	31009.894
593.683	31020.404
593.812	31125.064
593.940	31087.894
594.068	31256.830
594.196	31351.511
594.324	31385.638
594.452	31377.298
594.580	31519.234
594.708	31610.766
594.837	31572.170
594.965	31699.723
595.093	31828.787
595.221	31726.809
595.349	31970.149
595.477	31939.213
595.605	31999.936
595.733	31959.128
595.862	32294.149
595.990	32091.830
596.118	32125.957
596.246	32368.362
596.374	32235.638
596.502	32346.915
596.630	32328.191
596.758	32369.128
596.887	32314.723
597.015	32289.638
597.143	32472.596
597.271	32312.830
597.399	32318.830
597.527	32300.106
597.655	32402.277
597.783	32242.957
597.912	32305.277
598.040	32222.319
598.168	32241.702
598.296	32283.894
598.424	32179.255
598.552	32159.745
598.680	32125.000
598.808	32142.851
598.937	32059.085
599.065	31929.702
599.193	31908.617
599.321	31917.213
599.449	31791.872
599.577	31811.681
599.705	31885.234
599.833	31722.851
599.962	31715.532
600.090	31758.340
600.218	31740.574
600.346	31677.702
600.474	31649.043
600.602	31678.851
600.730	31727.851
600.858	31632.745
600.987	31806.936
601.115	31744.468
601.243	31851.872
601.371	31776.298
601.499	31814.234
601.627	31837.340
601.755	31830.340
601.883	31922.234
602.012	32012.660
602.140	31987.000
602.268	32170.532
602.396	32164.468
602.524	32355.681
602.652	32404.851
602.780	32455.426
602.908	32584.362
603.037	32659.809
603.165	32684.979
603.293	32848.255
603.421	32897.000
603.549	32895.617
603.677	33186.638
603.805	33233.298
603.933	33330.255
604.062	33475.213
604.190	33542.851
604.318	33625.064
604.446	33733.468
604.574	33859.170
604.702	33867.979
604.830	33976.362
604.958	34022.000
605.087	34140.298
605.215	34168.894
605.343	34300.404
605.471	34344.830
605.599	34422.000
605.727	34428.872
605.855	34527.787
605.983	34648.574
606.112	34730.532
606.240	34704.638
606.368	34722.064
606.496	34901.723
606.624	34790.043
606.752	34901.277
606.880	35013.340
607.008	35166.128
607.137	35055.043
607.265	34854.723
607.393	34914.766
607.521	34929.553
607.649	34904.191
607.777	34783.489
607.905	34783.681
608.033	34699.426
608.162	34721.957
608.290	34641.383
608.418	34607.915
608.546	34586.915
608.674	34512.957
608.802	34521.043
608.930	34405.809
609.058	34432.723
609.187	34441.638
609.315	34396.085
609.443	34260.830
609.571	34225.809
609.699	34074.426
609.827	34162.830
609.955	34096.957
610.083	34034.404
610.212	33942.872
610.340	33875.000
610.468	33925.745
610.596	33994.745
610.724	34028.021
610.852	33918.894
610.980	33918.170
611.108	33977.021
611.237	33879.851
611.365	33911.255
611.493	33927.723
611.621	33965.872
611.749	33998.957
611.877	34092.766
612.005	34016.872
612.133	34098.617
612.262	34177.191
612.390	34150.915
612.518	34170.851
612.646	34359.553
612.774	34336.170
612.902	34372.064
613.030	34402.277
613.158	34544.766
613.287	34635.574
613.415	34594.681
613.543	34717.255
613.671	34806.362
613.799	34912.723
613.927	34935.915
614.055	34986.021
614.183	35121.468
614.312	35050.979
614.440	35153.234
614.568	35197.340
614.696	35272.000
614.824	35542.362
614.952	35437.383
615.080	35464.872
615.208	35533.447
615.337	35558.574
615.465	35626.638
615.593	35717.128
615.721	35732.191
615.849	35768.957
615.977	35934.383
616.105	36011.340
616.233	36031.511
616.362	36198.319
616.490	36173.447
616.618	36202.021
616.746	36095.638
616.874	36251.447
617.002	36194.319
617.130	36277.681
617.258	36342.745
617.387	36215.830
617.515	36382.277
617.643	36359.170
617.771	36336.043
617.899	36288.681
618.027	36423.489
618.155	36473.277
618.283	36405.468
618.412	36456.362
618.540	36465.617
618.668	36449.574
618.796	36496.660
618.924	36606.106
619.052	36517.234
619.180	36459.809
619.308	36478.660
619.437	36530.383
619.565	36554.404
619.693	36569.745
619.821	36528.298
619.949	36457.894
620.077	36580.064
620.205	36530.681
620.333	36640.383
620.462	36656.894
620.590	36633.234
620.718	36592.000
620.846	36649.957
620.974	36616.362
621.102	36573.404
621.230	36632.128
621.358	36692.702
621.487	36525.319
621.615	36481.745
621.743	36552.723
621.871	36552.191
621.999	36536.723
622.127	36506.404
622.255	36579.915
622.383	36435.383
622.512	36406.957
622.640	36541.957
622.768	36301.809
622.896	36269.383
623.024	36263.170
623.152	36281.426
623.280	36291.234
623.408	36236.489
623.537	36137.702
623.665	36163.426
623.793	36215.872
623.921	36128.702
624.049	36140.298
624.177	36057.830
624.305	36139.128
624.433	36081.957
624.562	36093.234
624.690	36040.723
624.818	36057.979
624.946	36142.319
625.074	35995.915
625.202	35923.702
625.330	35804.426
625.458	35865.766
625.587	35853.532
625.715	35809.787
625.843	35947.532
625.971	35838.000
626.099	35814.213
626.227	35787.660
626.355	35729.128
626.483	35869.979
626.612	35778.660
626.740	35776.660
626.868	35855.468
626.996	35871.872
627.124	35844.660
627.252	35842.489
627.380	35827.255
627.508	35892.532
627.637	35710.915
627.765	35785.362
627.893	35838.319
628.021	35888.426
628.149	36095.064
628.277	36159.043
628.405	36174.340
628.533	35850.638
628.662	35823.128
628.790	35897.936
628.918	35953.191
629.046	35916.681
629.174	36121.723
629.302	36287.085
629.430	36151.787
629.558	36044.915
629.687	36039.915
629.815	36098.000
629.943	36065.106
630.071	36111.319
630.199	36175.277
630.327	36141.766
630.455	36255.723
630.583	36286.277
630.712	36155.064
630.840	36247.894
630.968	36208.447
631.096	36196.851
631.224	36230.723
631.352	36213.894
631.480	36151.489
631.608	36333.766
631.737	36281.404
631.865	36309.234
631.993	36131.851
632.121	36263.681
632.249	36322.255
632.377	36260.723
632.505	36304.979
632.633	36077.319
632.762	36150.511
632.890	36321.702
633.018	36036.149
633.146	36207.617
633.274	36146.106
633.402	36114.191
633.530	36007.553
633.658	36102.979
633.787	35847.362
633.915	35900.894
634.043	35865.383
634.171	35782.787
634.299	35672.255
634.427	35768.447
634.555	35698.170
634.683	35656.851
634.812	35500.915
634.940	35577.149
635.068	35514.830
635.196	35416.957
635.324	35383.213
635.452	35287.085
635.580	35242.021
635.708	35099.957
635.837	35138.404
635.965	34909.511
636.093	34869.830
636.221	34829.021
636.349	34826.638
636.477	34661.383
636.605	34844.043
636.733	34474.021
636.862	34516.447
636.990	34397.277
637.118	34349.979
637.246	34384.021
637.374	34276.638
637.502	34251.191
637.630	34038.000
637.758	34101.021
637.887	34022.511
638.015	33928.532
638.143	33839.489
638.271	33807.979
638.399	33753.021
638.527	33681.383
638.655	33678.553
638.783	33715.426
638.912	33487.128
639.040	33513.809
639.168	33417.660
639.296	33416.447
639.424	33512.894
639.552	33397.255
639.680	33511.106
639.808	33389.851
639.937	33243.000
640.065	33115.511
640.193	33240.000
640.321	33156.511
640.449	33183.532
640.577	33179.426
640.705	33113.596
640.833	33167.766
640.962	33128.979
641.090	33040.277
641.218	33061.638
641.346	33020.319
641.474	33115.468
641.602	33107.426
641.730	33083.553
641.858	33135.787
641.987	33238.638
642.115	33118.191
642.243	33241.809
642.371	33202.149
642.499	33182.617
642.627	33195.638
642.755	33203.277
642.883	33267.340
643.012	33172.596
643.140	33110.723
643.268	33146.766
643.396	33089.745
643.524	33154.064
643.652	33110.872
643.780	33071.915
643.908	33180.723
644.037	33070.809
644.165	32989.064
644.293	33068.532
644.421	33099.957
644.549	33058.170
644.677	32993.894
644.805	33012.723
644.933	32924.191
645.062	32893.447
645.190	32920.362
645.318	32999.979
645.446	32841.149
645.574	32827.766
645.702	32833.660
645.830	32932.574
645.958	32671.447
646.087	32945.404
646.215	32571.277
646.343	32758.277
646.471	32535.745
646.599	32498.064
646.727	32463.447
646.855	32343.702
646.983	32398.723
647.112	32249.723
647.240	32394.511
647.368	32184.043
647.496	32188.872
647.624	32121.340
647.752	32071.723
647.880	31940.830
648.008	31894.255
648.137	31879.596
648.265	31820.702
648.393	31801.511
648.521	31743.660
648.649	31623.957
648.777	31602.723
648.905	31480.723
649.033	31410.957
649.162	31381.851
649.290	31367.617
649.418	31246.809
649.546	31281.489
649.674	31132.085
649.802	31095.043
649.930	31149.340
650.058	30901.894
650.187	30797.362
650.315	30761.234
650.443	30753.298
650.571	30640.340
650.699	30605.383
650.827	30496.617
650.955	30356.021
651.083	30406.617
651.212	30402.404
651.340	30299.511
651.468	30130.766
651.596	30029.340
651.724	30039.043
651.852	29897.298
651.980	29830.872
652.108	29833.021
652.237	29675.383
652.365	29773.596
652.493	29623.915
652.621	29537.745
652.749	29544.128
652.877	29436.979
653.005	29340.319
653.133	29221.702
653.262	29219.277
653.390	29170.000
653.518	29166.532
653.646	29057.128
653.774	29153.681
653.902	28883.447
654.030	28918.213
654.158	28839.170
654.287	28778.255
654.415	28687.915
654.543	28687.915
654.671	28557.340
654.799	28504.319
654.927	28460.830
655.055	28347.447
655.183	28335.064
655.312	28291.787
655.440	28245.085
655.568	28096.489
655.696	28129.468
655.824	28121.043
655.952	27998.851
656.080	27869.723
656.208	27877.830
656.337	27747.277
656.465	27739.298
656.593	27623.574
656.721	27431.660
656.849	27503.213
656.977	27392.638
657.105	27318.638
657.233	27305.894
657.362	27230.447
657.490	27147.170
657.618	27063.085
657.746	26994.191
657.874	26903.362
658.002	26845.894
658.130	26738.660
658.258	26649.170
658.387	26664.191
658.515	26537.553
658.643	26452.128
658.771	26409.957
658.899	26341.532
659.027	26303.511
659.155	26248.617
659.283	26296.532
659.412	26050.277
659.540	26099.894
659.668	25908.447
659.796	25941.872
659.924	25852.830
660.052	25747.723
660.180	25604.894
660.308	25661.106
660.437	25517.043
660.565	25443.468
660.693	25446.362
660.821	25364.277
660.949	25221.277
661.077	25180.191
661.205	25159.277
661.333	25068.660
661.462	25194.979
661.590	24987.404
661.718	25102.617
661.846	24883.234
661.974	25033.681
662.102	24825.426
662.230	24759.234
662.358	24663.128
662.487	24693.745
662.615	24603.851
662.743	24519.383
662.871	24521.745
662.999	24524.532
663.127	24427.723
663.255	24518.915
663.383	24464.043
663.512	24379.723
663.640	24370.128
663.768	24313.830
663.896	24323.426
664.024	24278.362
664.152	24212.702
664.280	24231.617
664.408	24170.149
664.537	24155.447
664.665	24087.404
664.793	24017.298
664.921	24041.979
665.049	23931.957
665.177	23944.851
665.305	23928.936
665.433	23820.553
665.562	23839.383
665.690	23850.681
665.818	23988.979
665.946	23851.298
666.074	23689.957
666.202	23696.319
666.330	23745.319
666.458	23699.851
666.587	23670.553
666.715	23662.936
666.843	23614.489
666.971	23557.064
667.099	23608.660
667.227	23517.532
667.355	23541.234
667.483	23502.489
667.612	23451.447
667.740	23380.809
667.868	23433.638
667.996	23325.638
668.124	23248.596
668.252	23278.489
668.380	23238.936
668.508	23231.043
668.637	23165.064
668.765	23101.128
668.893	23118.234
669.021	22966.553
669.149	23002.064
669.277	22990.383
669.405	22833.298
669.533	22793.340
669.662	22984.894
669.790	22696.319
669.918	22705.362
670.046	22560.957
670.174	22648.000
670.302	22581.213
670.430	22454.085
670.558	22487.362
670.687	22270.766
670.815	22394.745
670.943	22266.936
671.071	22208.404
671.199	22169.745
671.327	22003.915
671.455	21998.191
671.583	21941.106
671.712	22021.128
671.840	21856.830
671.968	21755.447
672.096	21594.298
672.224	21618.830
672.352	21669.362
672.480	21499.915
672.608	21326.936
672.737	21278.638
672.865	21356.851
672.993	21173.617
673.121	21084.596
673.249	20951.532
673.377	20969.085
673.505	20847.638
673.633	20747.745
673.762	20648.511
673.890	20566.128
674.018	20746.106
674.146	20455.511
674.274	20373.468
674.402	20443.191
674.530	20199.809
674.658	20175.809
674.787	20033.617
674.915	19954.915
675.043	20005.085
675.171	19906.830
675.299	19749.766
675.427	19684.085
675.555	19590.979
675.683	19523.532
675.812	19461.128
675.940	19365.298
676.068	19282.064
676.196	19234.298
676.324	19114.064
676.452	19076.255
676.580	19029.170
676.708	18960.404
676.837	18899.404
676.965	18789.064
677.093	18716.383
677.221	18651.149
677.349	18615.170
677.477	18598.128
677.605	18417.255
677.733	18366.574
677.862	18226.702
677.990	18194.064
678.118	18170.106
678.246	18118.447
678.374	18077.191
678.502	17976.702
678.630	17892.532
678.758	17838.106
678.887	17749.872
679.015	17680.936
679.143	17691.596
679.271	17564.830
679.399	17547.894
679.527	17532.532
679.655	17358.766
679.783	17419.936
679.912	17351.064
680.040	17273.617
680.168	17266.915
680.296	17167.766
680.424	17073.723
680.552	17087.383
680.680	17098.957
680.808	16929.915
680.937	16908.468
681.065	16778.766
681.193	16798.404
681.321	16793.191
681.449	16693.383
681.577	16753.043
681.705	16685.894
681.833	16581.106
681.962	16517.809
682.090	16668.277
682.218	16454.447
682.346	16387.957
682.474	16436.362
682.602	16338.617
682.730	16410.468
682.858	16294.574
682.987	16307.021
683.115	16268.553
683.243	16199.638
683.371	16186.702
683.499	16235.191
683.627	16191.362
683.755	16168.638
683.883	16214.426
684.012	16069.021
684.140	16028.723
684.268	16018.213
684.396	16001.830
684.524	15995.064
684.652	15960.340
684.780	15932.894
684.908	15943.957
685.037	15762.532
685.165	15780.426
685.293	15709.447
685.421	15767.915
685.549	15613.447
685.677	15597.809
685.805	15689.021
685.933	15587.468
686.062	15511.745
686.190	15463.106
686.318	15517.191
686.446	15377.447
686.574	15356.383
686.702	15388.936
686.830	15381.000
686.958	15210.170
687.087	15198.511
687.215	15231.277
687.343	15110.426
687.471	15106.681
687.599	15031.362
687.727	15181.574
687.855	14964.574
687.983	14988.021
688.112	14982.064
688.240	14833.447
688.368	14824.277
688.496	14829.830
688.624	14763.872
688.752	14666.383
688.880	14647.362
689.008	14632.702
689.137	14597.383
689.265	14495.043
689.393	14490.660
689.521	14369.574
689.649	14435.468
689.777	14400.596
689.905	14291.894
690.033	14315.894
690.162	14231.426
690.290	14189.660
690.418	14138.574
690.546	14199.617
690.674	14130.660
690.802	14002.617
690.930	13986.936
691.058	13943.319
691.187	13851.064
691.315	13862.979
691.443	13871.213
691.571	13752.638
691.699	13753.489
691.827	13699.511
691.955	13607.128
692.083	13563.021
692.212	13628.723
692.340	13466.511
692.468	13474.064
692.596	13388.596
692.724	13479.617
692.852	13298.957
692.980	13367.596
693.108	13228.617
693.237	13165.064
693.365	13089.723
693.493	13019.787
693.621	12994.298
693.749	12912.681
693.877	12945.617
694.005	12960.489
694.133	12820.745
694.262	12816.787
694.390	12677.277
694.518	12682.957
694.646	12668.106
694.774	12639.234
694.902	12721.277
695.030	12611.830
695.158	12474.404
695.287	12494.532
695.415	12395.787
695.543	12325.681
695.671	12436.021
695.799	12287.043
695.927	12255.936
696.055	12168.021
696.183	12135.383
696.312	12109.766
696.440	12175.000
696.568	12074.936
696.696	12050.085
696.824	11931.851
696.952	11914.213
697.080	11905.064
697.208	11795.617
697.337	11804.085
697.465	11753.787
697.593	11649.511
697.721	11686.021
697.849	11619.277
697.977	11592.021
698.105	11617.596
698.233	11451.532
698.362	11487.915
698.490	11442.021
698.618	11352.213
698.746	11413.106
698.874	11281.043
699.002	11465.255
699.130	11210.851
699.258	11151.766
699.387	11095.723
699.515	11078.277
699.643	11042.128
699.771	11026.021
699.899	10947.234
700.027	10912.383
700.155	10857.638
700.283	10842.851
700.412	10818.000
700.540	10773.170
700.668	10768.702
700.796	10641.447
700.924	10569.660
701.052	10564.383
701.180	10644.681
701.308	10496.574
701.437	10403.957
701.565	10324.936
701.693	10303.809
701.821	10315.979
701.949	10308.298
702.077	10241.596
702.205	10102.404
702.333	10095.766
702.462	10050.149
702.590	10009.979
702.718	9941.553
702.846	9932.106
702.974	9858.681
703.102	9838.149
703.230	9907.426
703.358	9779.106
703.487	9660.298
703.615	9835.915
703.743	9655.617
703.871	9555.468
703.999	9561.872
704.127	9563.447
704.255	9370.043
704.383	9497.362
704.512	9325.298
704.640	9268.532
704.768	9218.894
704.896	9265.681
705.024	9097.191
705.152	9187.170
705.280	9058.979
705.408	8969.468
705.537	8963.830
705.665	8906.426
705.793	8833.851
705.921	8799.553
706.049	8801.149
706.177	8664.787
706.305	8677.128
706.433	8741.511
706.562	8607.426
706.690	8536.149
706.818	8471.617
706.946	8688.340
707.074	8442.106
707.202	8351.617
707.330	8435.277
707.458	8325.170
707.587	8239.340
707.715	8240.936
707.843	8232.787
707.971	8191.085
708.099	8155.660
708.227	8046.532
708.355	8010.298
708.483	7947.340
708.612	7907.702
708.740	7948.213
708.868	7969.766
708.996	7863.894
709.124	7819.404
709.252	7766.213
709.380	7731.872
709.508	7768.468
709.637	7665.106
709.765	7639.000
709.893	7653.298
710.021	7618.574
710.149	7558.979
710.277	7605.894
710.405	7463.766
710.533	7483.213
710.662	7432.596
710.790	7386.787
710.918	7410.149
711.046	7356.681
711.174	7317.191
711.302	7344.766
711.430	7366.362
711.558	7187.468
711.687	7190.851
711.815	7250.872
711.943	7164.426
712.071	7132.511
712.199	7130.787
712.327	7138.383
712.455	7067.149
712.583	7064.085
712.712	7004.213
712.840	6978.894
712.968	6957.170
713.096	6940.255
713.224	6874.830
713.352	6884.957
713.480	6874.511
713.608	6856.468
713.737	6832.511
713.865	6843.936
713.993	6835.830
714.121	6751.340
714.249	6776.319
714.377	6811.723
714.505	6702.915
714.633	6831.745
714.762	6693.872
714.890	6631.255
715.018	6627.447
715.146	6611.936
715.274	6639.043
715.402	6707.660
715.530	6582.936
715.658	6459.149
715.787	6481.979
715.915	6620.128
716.043	6415.128
716.171	6463.255
716.299	6477.851
716.427	6372.213
716.555	6346.553
716.683	6300.596
716.812	6299.106
716.940	6300.128
717.068	6201.447
717.196	6395.362
717.324	6306.787
717.452	6219.936
717.580	6153.191
717.708	6147.383
717.837	6187.809
717.965	6069.106
718.093	6091.872
718.221	6006.362
718.349	6049.851
718.477	6027.723
718.605	6026.830
718.733	5925.596
718.862	5935.894
718.990	5912.936
719.118	5901.830
719.246	5841.000
719.374	5889.191
719.502	5792.702
719.630	5921.106
719.758	5696.383
719.887	5701.979
720.015	5889.234
720.143	5611.617
720.271	5662.766
720.399	5639.511
720.527	5642.553
720.655	5622.787
720.783	5619.426
720.912	5512.426
721.040	5512.872
721.168	5428.915
721.296	5506.574
721.424	5408.021
721.552	5345.234
721.680	5324.149
721.808	5359.915
721.937	5315.617
722.065	5386.362
722.193	5399.489
722.321	5243.745
722.449	5174.660
722.577	5182.638
722.705	5116.447
722.833	5150.298
722.962	5144.426
723.090	5029.511
723.218	4987.277
723.346	4998.915
723.474	4959.468
723.602	5092.553
723.730	5028.149
723.858	5094.596
723.987	4941.043
724.115	4955.191
724.243	4873.085
724.371	4867.149
724.499	4872.787
724.627	4773.191
724.755	4738.681
724.883	4709.979
725.012	4726.809
725.140	4739.149
725.268	4654.319
725.396	4594.277
725.524	4573.149
725.652	4601.362
725.780	4573.872
725.908	4601.809
726.037	4668.468
726.165	4476.830
726.293	4420.532
726.421	4429.106
726.549	4388.064
726.677	4381.894
726.805	4342.447
726.933	4299.979
727.062	4339.723
727.190	4293.723
727.318	4234.936
727.446	4242.404
727.574	4241.809
727.702	4333.702
727.830	4157.702
727.958	4237.191
728.087	4154.723
728.215	4246.745
