0pol_90_120_at_750.00nm_cut_at_984.50Y_01.dat
24.04.2023
10:43:35
cut middle at Y: 984.50
top cursor: 1008 down cursor: 961 mean of: 47 lines , 2560 datapoints
wavelength(nm)	intensity[arb. units]
585.996	11990.489
586.124	11643.553
586.252	11577.064
586.380	11670.277
586.508	11692.574
586.637	11776.553
586.765	11822.851
586.893	11819.511
587.021	11866.532
587.149	11934.617
587.277	11883.213
587.405	12036.723
587.533	11955.298
587.662	12062.149
587.790	12002.085
587.918	11926.319
588.046	11988.170
588.174	11917.745
588.302	12078.894
588.430	12021.064
588.558	11972.851
588.687	11963.255
588.815	11921.404
588.943	11943.894
589.071	11948.447
589.199	12067.213
589.327	11983.255
589.455	11956.170
589.583	12088.702
589.712	12036.255
589.840	12006.766
589.968	11942.553
590.096	12027.362
590.224	12019.085
590.352	12009.170
590.480	12023.000
590.608	12066.043
590.737	12137.638
590.865	12064.043
590.993	12038.723
591.121	12060.064
591.249	12080.021
591.377	12039.660
591.505	12084.426
591.633	12143.915
591.762	12094.574
591.890	12243.170
592.018	12106.979
592.146	12114.128
592.274	12126.936
592.402	12192.191
592.530	12187.894
592.658	12462.957
592.787	12249.979
592.915	12429.234
593.043	12254.574
593.171	12311.085
593.299	12375.957
593.427	12370.723
593.555	12429.128
593.683	12372.319
593.812	12438.702
593.940	12453.596
594.068	12503.745
594.196	12545.660
594.324	12529.681
594.452	12558.149
594.580	12635.830
594.708	12620.404
594.837	12624.043
594.965	12686.170
595.093	12747.064
595.221	12719.681
595.349	12911.915
595.477	12834.809
595.605	12825.745
595.733	12763.851
595.862	13036.489
595.990	12873.000
596.118	12905.149
596.246	13061.404
596.374	12958.489
596.502	12987.702
596.630	12956.255
596.758	12980.043
596.887	12982.277
597.015	13023.191
597.143	13007.915
597.271	13018.277
597.399	13033.936
597.527	13022.532
597.655	13013.936
597.783	13011.191
597.912	13041.128
598.040	13041.787
598.168	13044.957
598.296	13026.979
598.424	13033.000
598.552	13053.936
598.680	13001.830
598.808	13095.000
598.937	13062.000
599.065	12921.787
599.193	13054.553
599.321	13077.766
599.449	12983.191
599.577	13038.043
599.705	13042.532
599.833	12970.511
599.962	12988.362
600.090	13067.106
600.218	13128.362
600.346	13112.085
600.474	13081.489
600.602	13097.617
600.730	13181.617
600.858	13228.362
600.987	13350.426
601.115	13237.915
601.243	13293.766
601.371	13303.021
601.499	13322.191
601.627	13411.213
601.755	13461.000
601.883	13467.383
602.012	13540.809
602.140	13482.979
602.268	13671.149
602.396	13606.362
602.524	13751.553
602.652	13680.234
602.780	13736.574
602.908	13732.170
603.037	13780.340
603.165	13800.404
603.293	13835.064
603.421	13896.319
603.549	13939.277
603.677	14034.000
603.805	13990.766
603.933	13986.234
604.062	14147.553
604.190	14168.574
604.318	14254.766
604.446	14189.170
604.574	14265.383
604.702	14319.489
604.830	14334.064
604.958	14396.936
605.087	14418.404
605.215	14428.149
605.343	14451.021
605.471	14477.915
605.599	14536.383
605.727	14507.021
605.855	14572.553
605.983	14607.957
606.112	14577.426
606.240	14627.894
606.368	14630.340
606.496	14835.660
606.624	14649.085
606.752	14698.085
606.880	14835.404
607.008	14861.936
607.137	14866.149
607.265	14631.426
607.393	14785.085
607.521	14860.128
607.649	14772.021
607.777	14734.915
607.905	14750.766
608.033	14816.128
608.162	14752.213
608.290	14769.723
608.418	14686.404
608.546	14756.021
608.674	14739.894
608.802	14759.617
608.930	14740.277
609.058	14768.064
609.187	14848.723
609.315	14793.596
609.443	14822.532
609.571	14918.638
609.699	14757.638
609.827	14837.191
609.955	14799.596
610.083	14720.085
610.212	14768.638
610.340	14749.149
610.468	14854.872
610.596	14816.553
610.724	14826.681
610.852	14784.468
610.980	14854.723
611.108	14894.447
611.237	14752.574
611.365	14815.638
611.493	14813.128
611.621	14871.809
611.749	14887.745
611.877	14955.191
612.005	14922.894
612.133	15039.617
612.262	15044.660
612.390	15019.489
612.518	15035.766
612.646	15156.702
612.774	15097.277
612.902	15127.489
613.030	15205.957
613.158	15352.745
613.287	15272.213
613.415	15288.191
613.543	15290.553
613.671	15190.660
613.799	15364.617
613.927	15267.000
614.055	15316.277
614.183	15465.149
614.312	15334.745
614.440	15500.872
614.568	15409.702
614.696	15504.319
614.824	15654.340
614.952	15530.255
615.080	15569.468
615.208	15635.809
615.337	15689.532
615.465	15743.553
615.593	15923.809
615.721	16003.426
615.849	16077.128
615.977	16019.872
616.105	16101.532
616.233	16063.106
616.362	16138.872
616.490	16075.787
616.618	16132.383
616.746	16164.468
616.874	16246.872
617.002	16183.809
617.130	16300.362
617.258	16435.638
617.387	16326.213
617.515	16232.000
617.643	16326.319
617.771	16258.383
617.899	16325.638
618.027	16310.936
618.155	16427.383
618.283	16320.702
618.412	16363.362
618.540	16399.277
618.668	16386.638
618.796	16414.660
618.924	16529.979
619.052	16435.298
619.180	16458.574
619.308	16490.383
619.437	16470.106
619.565	16447.404
619.693	16368.894
619.821	16418.043
619.949	16422.745
620.077	16552.064
620.205	16516.511
620.333	16506.149
620.462	16518.404
620.590	16578.489
620.718	16446.809
620.846	16489.787
620.974	16547.511
621.102	16429.617
621.230	16462.638
621.358	16634.426
621.487	16481.787
621.615	16496.872
621.743	16571.128
621.871	16486.255
621.999	16551.489
622.127	16535.979
622.255	16554.702
622.383	16481.787
622.512	16459.064
622.640	16682.894
622.768	16456.915
622.896	16487.723
623.024	16507.787
623.152	16627.362
623.280	16553.553
623.408	16441.617
623.537	16538.596
623.665	16494.021
623.793	16548.021
623.921	16508.787
624.049	16468.957
624.177	16504.447
624.305	16508.149
624.433	16505.106
624.562	16502.872
624.690	16547.702
624.818	16558.128
624.946	16717.681
625.074	16617.298
625.202	16518.830
625.330	16539.596
625.458	16611.851
625.587	16619.596
625.715	16625.213
625.843	16690.809
625.971	16611.617
626.099	16643.489
626.227	16631.404
626.355	16571.383
626.483	16751.489
626.612	16651.872
626.740	16622.447
626.868	16778.021
626.996	16674.766
627.124	16676.915
627.252	16723.638
627.380	16728.298
627.508	16775.638
627.637	16722.702
627.765	16853.766
627.893	16839.128
628.021	16894.617
628.149	17090.702
628.277	17195.830
628.405	17225.362
628.533	16941.979
628.662	17021.511
628.790	16955.766
628.918	17023.021
629.046	17074.702
629.174	17239.277
629.302	17443.468
629.430	17276.404
629.558	17185.106
629.687	17211.362
629.815	17216.596
629.943	17257.532
630.071	17304.340
630.199	17330.447
630.327	17356.936
630.455	17376.404
630.583	17505.745
630.712	17419.745
630.840	17488.447
630.968	17463.809
631.096	17459.532
631.224	17488.532
631.352	17533.234
631.480	17602.362
631.608	17548.234
631.737	17662.766
631.865	17719.340
631.993	17569.383
632.121	17728.660
632.249	17682.574
632.377	17648.532
632.505	17638.851
632.633	17532.319
632.762	17599.149
632.890	17677.511
633.018	17572.979
633.146	17723.957
633.274	17599.043
633.402	17639.596
633.530	17491.723
633.658	17681.830
633.787	17505.085
633.915	17594.638
634.043	17542.681
634.171	17561.532
634.299	17507.213
634.427	17515.426
634.555	17482.383
634.683	17406.043
634.812	17406.064
634.940	17442.809
635.068	17354.426
635.196	17394.979
635.324	17330.766
635.452	17431.894
635.580	17260.766
635.708	17241.362
635.837	17328.255
635.965	17258.213
636.093	17155.660
636.221	17132.830
636.349	17228.872
636.477	17103.085
636.605	17323.745
636.733	17039.191
636.862	17029.447
636.990	17022.277
637.118	17067.936
637.246	16976.745
637.374	16965.766
637.502	16974.872
637.630	16933.128
637.758	16935.830
637.887	16902.489
638.015	16899.936
638.143	16895.574
638.271	16832.426
638.399	16813.340
638.527	16779.830
638.655	16783.745
638.783	16923.064
638.912	16797.319
639.040	16804.255
639.168	16815.043
639.296	16787.979
639.424	16908.915
639.552	16742.511
639.680	16887.787
639.808	16854.468
639.937	16792.809
640.065	16792.787
640.193	16853.404
640.321	16709.511
640.449	16847.957
640.577	16901.298
640.705	16837.617
640.833	16872.596
640.962	16784.064
641.090	16822.128
641.218	16854.298
641.346	16896.617
641.474	16896.638
641.602	16874.915
641.730	16898.809
641.858	16976.915
641.987	16962.000
642.115	16914.957
642.243	17026.468
642.371	16932.957
642.499	17011.915
642.627	17060.787
642.755	17162.915
642.883	17072.340
643.012	17117.191
643.140	17015.872
643.268	17081.149
643.396	17138.681
643.524	17267.319
643.652	17123.638
643.780	17105.404
643.908	17163.255
644.037	17255.468
644.165	17168.894
644.293	17189.532
644.421	17197.213
644.549	17266.106
644.677	17168.404
644.805	17205.851
644.933	17163.979
645.062	17167.851
645.190	17268.362
645.318	17255.489
645.446	17177.000
645.574	17204.915
645.702	17187.319
645.830	17389.064
645.958	17138.213
646.087	17390.085
646.215	17089.340
646.343	17332.277
646.471	17187.298
646.599	17186.638
646.727	17133.702
646.855	17056.851
646.983	17154.617
647.112	17125.128
647.240	17278.383
647.368	17113.234
647.496	17094.894
647.624	17057.979
647.752	16958.085
647.880	17004.596
648.008	16962.787
648.137	16963.043
648.265	16971.617
648.393	16917.170
648.521	16951.085
648.649	16891.340
648.777	16876.255
648.905	16866.426
649.033	16806.085
649.162	16820.787
649.290	16829.191
649.418	16766.021
649.546	16805.043
649.674	16757.234
649.802	16655.340
649.930	16819.574
650.058	16702.106
650.187	16585.979
650.315	16603.191
650.443	16645.915
650.571	16595.021
650.699	16606.809
650.827	16577.617
650.955	16519.723
651.083	16524.128
651.212	16549.617
651.340	16522.574
651.468	16514.787
651.596	16446.298
651.724	16363.660
651.852	16387.872
651.980	16397.255
652.108	16428.000
652.237	16373.255
652.365	16428.957
652.493	16327.872
652.621	16320.532
652.749	16367.553
652.877	16322.745
653.005	16348.319
653.133	16227.766
653.262	16324.915
653.390	16258.128
653.518	16333.723
653.646	16247.553
653.774	16400.511
653.902	16214.191
654.030	16236.340
654.158	16163.894
654.287	16175.660
654.415	16151.064
654.543	16154.085
654.671	16117.000
654.799	16167.638
654.927	16065.723
655.055	16091.638
655.183	16142.149
655.312	16079.404
655.440	16128.106
655.568	16033.383
655.696	16068.362
655.824	16163.298
655.952	16030.745
656.080	15914.532
656.208	16080.149
656.337	15921.277
656.465	15953.489
656.593	15958.660
656.721	15874.085
656.849	15911.277
656.977	15846.660
657.105	15812.532
657.233	15796.191
657.362	15759.511
657.490	15763.745
657.618	15723.532
657.746	15717.809
657.874	15663.319
658.002	15624.851
658.130	15696.319
658.258	15583.532
658.387	15661.468
658.515	15570.638
658.643	15568.106
658.771	15540.106
658.899	15603.085
659.027	15609.702
659.155	15565.702
659.283	15675.574
659.412	15503.553
659.540	15596.277
659.668	15444.149
659.796	15500.000
659.924	15520.957
660.052	15443.660
660.180	15452.468
660.308	15380.255
660.437	15382.723
660.565	15388.596
660.693	15361.319
660.821	15394.149
660.949	15340.596
661.077	15378.000
661.205	15326.170
661.333	15349.511
661.462	15396.319
661.590	15327.255
661.718	15496.128
661.846	15344.447
661.974	15483.766
662.102	15289.574
662.230	15322.830
662.358	15268.255
662.487	15303.255
662.615	15296.000
662.743	15255.532
662.871	15267.106
662.999	15239.340
663.127	15218.234
663.255	15372.809
663.383	15341.340
663.512	15300.489
663.640	15303.277
663.768	15244.745
663.896	15344.085
664.024	15273.915
664.152	15278.872
664.280	15393.447
664.408	15390.255
664.537	15349.745
664.665	15313.809
664.793	15228.128
664.921	15237.660
665.049	15308.277
665.177	15280.213
665.305	15290.277
665.433	15253.021
665.562	15254.298
665.690	15312.021
665.818	15444.319
665.946	15312.851
666.074	15235.766
666.202	15286.723
666.330	15309.085
666.458	15290.745
666.587	15229.106
666.715	15277.213
666.843	15263.596
666.971	15272.064
667.099	15307.383
667.227	15278.404
667.355	15224.660
667.483	15246.957
667.612	15262.596
667.740	15278.894
667.868	15331.362
667.996	15302.340
668.124	15199.894
668.252	15245.830
668.380	15276.362
668.508	15240.234
668.637	15236.000
668.765	15218.277
668.893	15286.894
669.021	15171.043
669.149	15253.021
669.277	15320.532
669.405	15169.511
669.533	15234.766
669.662	15450.106
669.790	15207.745
669.918	15280.383
670.046	15164.000
670.174	15271.085
670.302	15203.426
670.430	15122.128
670.558	15181.511
670.687	15088.894
670.815	15260.957
670.943	15111.872
671.071	15061.149
671.199	15036.468
671.327	14961.574
671.455	15028.915
671.583	15026.362
671.712	15152.383
671.840	15008.532
671.968	14886.723
672.096	14862.851
672.224	14876.511
672.352	15041.681
672.480	14872.362
672.608	14859.872
672.737	14778.000
672.865	14883.362
672.993	14781.553
673.121	14645.447
673.249	14629.468
673.377	14649.021
673.505	14573.979
673.633	14533.766
673.762	14531.638
673.890	14500.277
674.018	14765.681
674.146	14436.340
674.274	14502.489
674.402	14541.596
674.530	14451.277
674.658	14348.362
674.787	14336.234
674.915	14298.851
675.043	14340.553
675.171	14248.234
675.299	14252.234
675.427	14304.553
675.555	14122.809
675.683	14168.681
675.812	14092.894
675.940	14122.830
676.068	14067.617
676.196	14023.894
676.324	14005.085
676.452	13963.894
676.580	13919.723
676.708	13951.596
676.837	13936.277
676.965	13826.596
677.093	13844.830
677.221	13812.468
677.349	13791.809
677.477	13812.872
677.605	13734.617
677.733	13771.766
677.862	13691.872
677.990	13627.383
678.118	13673.128
678.246	13663.404
678.374	13655.553
678.502	13559.553
678.630	13600.404
678.758	13589.191
678.887	13550.745
679.015	13508.702
679.143	13480.468
679.271	13478.532
679.399	13499.213
679.527	13460.000
679.655	13409.213
679.783	13433.617
679.912	13480.511
680.040	13424.787
680.168	13422.468
680.296	13456.745
680.424	13383.574
680.552	13375.787
680.680	13379.255
680.808	13287.106
680.937	13314.872
681.065	13313.404
681.193	13330.766
681.321	13384.872
681.449	13287.255
681.577	13336.851
681.705	13291.638
681.833	13279.128
681.962	13274.319
682.090	13473.043
682.218	13258.319
682.346	13239.532
682.474	13244.511
682.602	13294.340
682.730	13271.213
682.858	13206.596
682.987	13292.511
683.115	13270.915
683.243	13179.085
683.371	13177.468
683.499	13280.851
683.627	13254.660
683.755	13221.979
683.883	13358.596
684.012	13209.149
684.140	13171.830
684.268	13177.957
684.396	13212.085
684.524	13266.702
684.652	13274.234
684.780	13214.489
684.908	13210.191
685.037	13134.277
685.165	13178.277
685.293	13143.787
685.421	13211.043
685.549	13083.489
685.677	13124.000
685.805	13249.191
685.933	13159.851
686.062	13099.979
686.190	13070.234
686.318	13112.660
686.446	13089.255
686.574	13040.404
686.702	13162.319
686.830	13040.574
686.958	13024.234
687.087	13021.191
687.215	13035.936
687.343	12952.426
687.471	12982.702
687.599	12942.809
687.727	13132.319
687.855	12951.660
687.983	12955.277
688.112	13033.383
688.240	12903.426
688.368	12843.447
688.496	12873.277
688.624	12905.574
688.752	12802.723
688.880	12838.319
689.008	12835.830
689.137	12796.830
689.265	12711.957
689.393	12734.149
689.521	12705.085
689.649	12670.979
689.777	12682.043
689.905	12688.532
690.033	12622.787
690.162	12628.809
690.290	12606.362
690.418	12528.511
690.546	12650.128
690.674	12641.340
690.802	12551.574
690.930	12525.596
691.058	12551.702
691.187	12520.745
691.315	12485.213
691.443	12513.851
691.571	12405.000
691.699	12487.766
691.827	12484.447
691.955	12391.596
692.083	12376.191
692.212	12470.128
692.340	12334.468
692.468	12337.532
692.596	12340.957
692.724	12421.319
692.852	12227.426
692.980	12358.596
693.108	12245.298
693.237	12199.085
693.365	12162.128
693.493	12156.809
693.621	12149.957
693.749	12081.340
693.877	12076.191
694.005	12175.511
694.133	12112.277
694.262	12084.234
694.390	12004.447
694.518	12035.702
694.646	11996.426
694.774	11970.213
694.902	12073.128
695.030	12043.532
695.158	11900.085
695.287	11899.170
695.415	11894.149
695.543	11839.660
695.671	11959.340
695.799	11932.957
695.927	11816.085
696.055	11843.170
696.183	11779.574
696.312	11803.404
696.440	11936.149
696.568	11893.043
696.696	11858.255
696.824	11688.660
696.952	11674.638
697.080	11704.681
697.208	11593.468
697.337	11731.064
697.465	11647.532
697.593	11595.277
697.721	11634.149
697.849	11584.723
697.977	11644.213
698.105	11616.362
698.233	11531.872
698.362	11542.702
698.490	11515.702
698.618	11537.064
698.746	11543.383
698.874	11522.170
699.002	11676.426
699.130	11481.702
699.258	11467.277
699.387	11420.979
699.515	11433.064
699.643	11380.596
699.771	11430.234
699.899	11339.511
700.027	11362.745
700.155	11295.085
700.283	11324.340
700.412	11317.745
700.540	11204.191
700.668	11274.723
700.796	11193.404
700.924	11204.234
701.052	11189.340
701.180	11290.681
701.308	11093.830
701.437	11051.149
701.565	11122.532
701.693	11032.681
701.821	11021.936
701.949	11018.745
702.077	11013.915
702.205	10959.681
702.333	10907.170
702.462	10844.979
702.590	10877.447
702.718	10835.170
702.846	10826.915
702.974	10767.043
703.102	10799.149
703.230	10872.979
703.358	10701.426
703.487	10673.106
703.615	10843.340
703.743	10643.404
703.871	10627.872
703.999	10636.468
704.127	10682.723
704.255	10497.277
704.383	10692.681
704.512	10468.745
704.640	10451.702
704.768	10367.979
704.896	10437.000
705.024	10298.957
705.152	10429.681
705.280	10271.766
705.408	10240.128
705.537	10238.511
705.665	10187.447
705.793	10172.383
705.921	10151.234
706.049	10144.255
706.177	10037.234
706.305	10072.787
706.433	10109.255
706.562	9992.830
706.690	9963.574
706.818	9947.234
706.946	10194.426
707.074	9912.319
707.202	9854.128
707.330	9905.277
707.458	9857.362
707.587	9808.043
707.715	9827.979
707.843	9845.574
707.971	9809.894
708.099	9816.468
708.227	9731.660
708.355	9736.000
708.483	9681.574
708.612	9656.234
708.740	9713.979
708.868	9739.809
708.996	9657.255
709.124	9651.213
709.252	9575.468
709.380	9543.191
709.508	9618.319
709.637	9492.468
709.765	9509.894
709.893	9557.340
710.021	9498.957
710.149	9469.043
710.277	9543.851
710.405	9431.596
710.533	9424.894
710.662	9416.936
710.790	9401.745
710.918	9459.277
711.046	9409.894
711.174	9399.234
711.302	9380.319
711.430	9467.106
711.558	9305.447
711.687	9309.894
711.815	9350.745
711.943	9318.000
712.071	9301.787
712.199	9301.021
712.327	9309.383
712.455	9212.809
712.583	9305.872
712.712	9225.979
712.840	9231.021
712.968	9227.234
713.096	9280.936
713.224	9192.511
713.352	9191.936
713.480	9148.447
713.608	9163.830
713.737	9169.447
713.865	9199.787
713.993	9206.213
714.121	9068.532
714.249	9161.872
714.377	9219.957
714.505	9168.106
714.633	9268.426
714.762	9133.447
714.890	9085.745
715.018	9108.745
715.146	9121.915
715.274	9186.596
715.402	9244.489
715.530	9148.489
715.658	9039.340
715.787	9061.383
715.915	9230.319
716.043	9042.489
716.171	9113.915
716.299	9101.426
716.427	9074.745
716.555	8987.000
716.683	8999.298
716.812	8979.234
716.940	8994.638
717.068	8898.064
717.196	9098.745
717.324	9002.043
717.452	8909.000
717.580	8869.234
717.708	8917.021
717.837	8978.064
717.965	8853.191
718.093	8881.340
718.221	8806.532
718.349	8850.191
718.477	8831.319
718.605	8872.979
718.733	8790.426
718.862	8791.191
718.990	8708.447
719.118	8768.936
719.246	8725.426
719.374	8766.957
719.502	8682.915
719.630	8827.702
719.758	8644.851
719.887	8635.277
720.015	8777.106
720.143	8586.362
720.271	8569.362
720.399	8588.532
720.527	8589.064
720.655	8599.723
720.783	8608.936
720.912	8525.043
721.040	8527.255
721.168	8428.872
721.296	8507.170
721.424	8441.319
721.552	8342.340
721.680	8398.383
721.808	8415.255
721.937	8357.723
722.065	8435.766
722.193	8479.362
722.321	8253.447
722.449	8254.106
722.577	8195.298
722.705	8183.426
722.833	8236.617
722.962	8270.915
723.090	8153.149
723.218	8112.340
723.346	8136.702
723.474	8140.766
723.602	8217.851
723.730	8142.745
723.858	8196.362
723.987	8095.702
724.115	8081.766
724.243	8019.660
724.371	8031.000
724.499	8032.511
724.627	7912.489
724.755	7943.404
724.883	7916.149
725.012	7858.170
725.140	7946.489
725.268	7888.723
725.396	7808.383
725.524	7768.128
725.652	7806.872
725.780	7752.787
725.908	7854.787
726.037	7892.489
726.165	7715.021
726.293	7663.723
726.421	7665.979
726.549	7657.745
726.677	7636.766
726.805	7635.426
726.933	7582.638
727.062	7642.383
727.190	7571.255
727.318	7548.511
727.446	7558.894
727.574	7539.064
727.702	7671.809
727.830	7469.085
727.958	7562.064
