0pol_90_80_at_750.00nm_cut_at_984.50Y_01.dat
24.04.2023
10:50:55
cut middle at Y: 984.50
top cursor: 1008 down cursor: 961 mean of: 47 lines , 2560 datapoints
wavelength(nm)	intensity[arb. units]
585.996	17037.787
586.124	16709.277
586.252	16650.957
586.380	16706.723
586.508	16791.128
586.637	16915.468
586.765	17090.085
586.893	17090.319
587.021	17133.340
587.149	17282.426
587.277	17295.489
587.405	17396.149
587.533	17351.957
587.662	17549.660
587.790	17521.085
587.918	17479.809
588.046	17629.553
588.174	17609.787
588.302	17700.404
588.430	17651.872
588.558	17705.681
588.687	17820.957
588.815	17798.660
588.943	17811.106
589.071	17809.745
589.199	17959.894
589.327	18031.149
589.455	17946.532
589.583	18098.362
589.712	18162.979
589.840	18165.404
589.968	18197.340
590.096	18304.830
590.224	18319.872
590.352	18405.404
590.480	18438.532
590.608	18489.383
590.737	18631.191
590.865	18608.787
590.993	18592.574
591.121	18727.426
591.249	18737.596
591.377	18796.213
591.505	18820.766
591.633	18917.872
591.762	18977.170
591.890	19206.979
592.018	19007.128
592.146	19161.404
592.274	19219.957
592.402	19319.149
592.530	19358.106
592.658	19674.532
592.787	19581.213
592.915	19673.149
593.043	19699.872
593.171	19804.511
593.299	19914.170
593.427	19991.681
593.555	20091.170
593.683	20122.681
593.812	20256.277
593.940	20353.234
594.068	20431.404
594.196	20623.319
594.324	20663.213
594.452	20693.936
594.580	20761.043
594.708	20839.511
594.837	20978.872
594.965	21108.447
595.093	21187.362
595.221	21258.489
595.349	21503.745
595.477	21502.043
595.605	21571.064
595.733	21617.362
595.862	21878.362
595.990	21786.362
596.118	21849.915
596.246	22104.277
596.374	22099.872
596.502	22188.319
596.630	22225.170
596.758	22362.915
596.887	22348.447
597.015	22471.553
597.143	22532.766
597.271	22604.106
597.399	22665.426
597.527	22652.553
597.655	22911.426
597.783	22778.426
597.912	22932.085
598.040	22957.128
598.168	23036.979
598.296	23098.511
598.424	23101.234
598.552	23129.489
598.680	23216.064
598.808	23349.936
598.937	23369.830
599.065	23341.319
599.193	23509.468
599.321	23543.681
599.449	23500.511
599.577	23581.596
599.705	23741.468
599.833	23774.064
599.962	23893.766
600.090	24026.468
600.218	24092.681
600.346	24180.766
600.474	24248.489
600.602	24277.149
600.730	24439.936
600.858	24551.191
600.987	24762.532
601.115	24811.574
601.243	25050.319
601.371	25049.660
601.499	25187.426
601.627	25378.426
601.755	25368.809
601.883	25649.191
602.012	25812.596
602.140	25821.809
602.268	26064.234
602.396	26216.894
602.524	26410.809
602.652	26464.766
602.780	26634.702
602.908	26795.702
603.037	26917.468
603.165	27053.085
603.293	27207.596
603.421	27445.894
603.549	27536.936
603.677	27738.596
603.805	27841.957
603.933	28084.468
604.062	28258.957
604.190	28380.255
604.318	28566.319
604.446	28639.319
604.574	28846.064
604.702	29056.851
604.830	29130.809
604.958	29338.277
605.087	29463.723
605.215	29607.766
605.343	29681.936
605.471	29874.723
605.599	30052.574
605.727	30138.809
605.855	30291.447
605.983	30377.489
606.112	30536.957
606.240	30652.043
606.368	30773.489
606.496	31086.085
606.624	31055.106
606.752	31236.468
606.880	31449.511
607.008	31570.872
607.137	31609.383
607.265	31539.915
607.393	31700.426
607.521	31936.447
607.649	31967.000
607.777	32065.106
607.905	32183.213
608.033	32143.255
608.162	32279.298
608.290	32363.319
608.418	32470.979
608.546	32604.787
608.674	32645.298
608.802	32804.766
608.930	32807.404
609.058	32925.191
609.187	33159.660
609.315	33118.298
609.443	33294.766
609.571	33409.617
609.699	33386.404
609.827	33576.489
609.955	33622.489
610.083	33643.340
610.212	33831.426
610.340	33882.149
610.468	34001.660
610.596	34106.851
610.724	34243.830
610.852	34238.787
610.980	34368.447
611.108	34561.447
611.237	34617.532
611.365	34752.383
611.493	34821.915
611.621	35060.447
611.749	35130.170
611.877	35376.340
612.005	35479.404
612.133	35599.809
612.262	35729.340
612.390	35899.660
612.518	36124.745
612.646	36410.319
612.774	36349.128
612.902	36566.617
613.030	36790.489
613.158	36989.043
613.287	36985.915
613.415	37180.106
613.543	37261.532
613.671	37390.766
613.799	37718.426
613.927	37685.234
614.055	37849.106
614.183	38125.447
614.312	38192.574
614.440	38411.596
614.568	38516.511
614.696	38682.489
614.824	38985.511
614.952	38948.000
615.080	39245.638
615.208	39404.255
615.337	39506.362
615.465	39679.809
615.593	40020.809
615.721	40261.830
615.849	40458.447
615.977	40623.489
616.105	40734.957
616.233	40838.936
616.362	41018.191
616.490	41213.638
616.618	41423.255
616.746	41529.766
616.874	41683.787
617.002	41812.681
617.130	41920.383
617.258	42262.532
617.387	42248.255
617.515	42321.638
617.643	42628.574
617.771	42665.596
617.899	42827.213
618.027	42986.745
618.155	43140.426
618.283	43308.404
618.412	43281.128
618.540	43504.149
618.668	43583.085
618.796	43734.809
618.924	43992.766
619.052	44001.957
619.180	44143.170
619.308	44297.745
619.437	44441.234
619.565	44455.277
619.693	44557.532
619.821	44706.915
619.949	44737.915
620.077	44943.298
620.205	45137.553
620.333	45163.915
620.462	45410.277
620.590	45461.787
620.718	45528.043
620.846	45713.681
620.974	45750.851
621.102	45853.979
621.230	46024.851
621.358	46132.000
621.487	46134.191
621.615	46244.532
621.743	46444.447
621.871	46481.000
621.999	46590.383
622.127	46643.489
622.255	46800.936
622.383	46861.638
622.512	46950.553
622.640	47198.957
622.768	47061.021
622.896	47165.617
623.024	47290.340
623.152	47464.404
623.280	47501.638
623.408	47544.809
623.537	47588.043
623.665	47621.681
623.793	47737.638
623.921	47811.362
624.049	47859.106
624.177	47922.979
624.305	48173.191
624.433	48112.000
624.562	48393.064
624.690	48332.489
624.818	48430.362
624.946	48559.383
625.074	48544.638
625.202	48574.511
625.330	48539.723
625.458	48725.723
625.587	48843.000
625.715	48831.702
625.843	48928.170
625.971	49116.170
626.099	49064.574
626.227	49119.660
626.355	49103.064
626.483	49335.681
626.612	49274.277
626.740	49437.447
626.868	49517.213
626.996	49651.255
627.124	49620.574
627.252	49622.596
627.380	49727.340
627.508	49991.979
627.637	49906.383
627.765	50034.787
627.893	50206.702
628.021	50359.170
628.149	50424.979
628.277	50534.617
628.405	50667.681
628.533	50561.702
628.662	50611.532
628.790	50653.106
628.918	50713.809
629.046	50985.000
629.174	51113.213
629.302	51235.362
629.430	51357.979
629.558	51344.638
629.687	51308.957
629.815	51500.979
629.943	51566.872
630.071	51587.809
630.199	51638.574
630.327	51694.234
630.455	51826.915
630.583	51913.532
630.712	52023.936
630.840	52186.872
630.968	52100.128
631.096	52169.319
631.224	52265.468
631.352	52320.447
631.480	52525.234
631.608	52403.043
631.737	52526.872
631.865	52657.553
631.993	52469.426
632.121	52705.532
632.249	52626.830
632.377	52619.851
632.505	52676.468
632.633	52504.128
632.762	52627.617
632.890	52688.532
633.018	52632.851
633.146	52827.872
633.274	52470.894
633.402	52788.681
633.530	52577.213
633.658	52745.511
633.787	52484.170
633.915	52524.894
634.043	52458.447
634.171	52484.894
634.299	52424.915
634.427	52466.426
634.555	52141.213
634.683	52211.511
634.812	52225.128
634.940	52136.766
635.068	52155.340
635.196	51981.021
635.324	51921.574
635.452	51776.511
635.580	51798.915
635.708	51691.851
635.837	51562.915
635.965	51581.872
636.093	51353.638
636.221	51365.596
636.349	51387.553
636.477	51221.723
636.605	51293.596
636.733	50933.191
636.862	50858.830
636.990	50782.489
637.118	50648.936
637.246	50711.383
637.374	50519.723
637.502	50585.936
637.630	50291.255
637.758	50228.021
637.887	50149.596
638.015	50053.681
638.143	50007.128
638.271	49920.277
638.399	49803.383
638.527	49670.277
638.655	49615.702
638.783	49549.340
638.912	49462.340
639.040	49347.574
639.168	49335.106
639.296	49115.255
639.424	49256.830
639.552	48999.830
639.680	49065.000
639.808	48988.426
639.937	48802.957
640.065	48737.362
640.193	48723.936
640.321	48739.277
640.449	48542.617
640.577	48589.213
640.705	48554.638
640.833	48497.426
640.962	48331.638
641.090	48350.064
641.218	48203.043
641.346	48136.468
641.474	48180.000
641.602	48037.894
641.730	47988.532
641.858	47998.830
641.987	47991.340
642.115	47958.234
642.243	47875.128
642.371	47757.319
642.499	47794.660
642.627	47774.128
642.755	47625.085
642.883	47605.064
643.012	47542.149
643.140	47491.234
643.268	47427.043
643.396	47300.596
643.524	47393.638
643.652	47257.234
643.780	47122.383
643.908	47051.340
644.037	47003.021
644.165	46987.511
644.293	46853.596
644.421	46797.830
644.549	46658.468
644.677	46575.191
644.805	46515.957
644.933	46284.894
645.062	46225.340
645.190	46032.574
645.318	46106.574
645.446	45858.830
645.574	45788.404
645.702	45669.468
645.830	45783.660
645.958	45387.638
646.087	45499.319
646.215	45135.106
646.343	45303.915
646.471	44934.957
646.599	44825.617
646.727	44621.936
646.855	44477.915
646.983	44329.021
647.112	44275.191
647.240	44176.830
647.368	43962.745
647.496	43866.872
647.624	43624.723
647.752	43483.213
647.880	43299.745
648.008	43162.851
648.137	43107.255
648.265	42851.447
648.393	42750.830
648.521	42535.149
648.649	42379.234
648.777	42244.957
648.905	42004.745
649.033	41783.362
649.162	41687.362
649.290	41563.191
649.418	41275.085
649.546	41166.319
649.674	40979.851
649.802	40772.319
649.930	40794.064
650.058	40532.447
650.187	40235.340
650.315	40158.638
650.443	40020.468
650.571	39840.511
650.699	39684.681
650.827	39486.426
650.955	39358.638
651.083	39147.298
651.212	39075.894
651.340	38910.511
651.468	38795.787
651.596	38553.213
651.724	38445.043
651.852	38291.128
651.980	38091.872
652.108	37887.979
652.237	37803.298
652.365	37608.340
652.493	37519.894
652.621	37349.128
652.749	37237.894
652.877	37009.596
653.005	36851.511
653.133	36738.106
653.262	36558.404
653.390	36472.213
653.518	36312.596
653.646	36159.766
653.774	36055.489
653.902	35812.085
654.030	35698.277
654.158	35456.447
654.287	35423.191
654.415	35180.043
654.543	35098.617
654.671	34937.574
654.799	34761.106
654.927	34570.383
655.055	34440.085
655.183	34268.957
655.312	34196.957
655.440	34117.638
655.568	33888.702
655.696	33761.106
655.824	33730.936
655.952	33494.872
656.080	33269.000
656.208	33206.319
656.337	32940.872
656.465	32928.064
656.593	32752.426
656.721	32489.468
656.849	32353.191
656.977	32310.064
657.105	32104.511
657.233	31883.872
657.362	31776.574
657.490	31531.277
657.618	31467.957
657.746	31338.851
657.874	31133.936
658.002	31098.362
658.130	30787.021
658.258	30685.191
658.387	30627.702
658.515	30413.745
658.643	30320.851
658.771	30136.191
658.899	30074.489
659.027	29842.489
659.155	29740.809
659.283	29765.043
659.412	29442.298
659.540	29396.000
659.668	29156.085
659.796	29089.277
659.924	28937.106
660.052	28746.000
660.180	28558.787
660.308	28457.553
660.437	28241.809
660.565	28228.149
660.693	28032.468
660.821	27988.532
660.949	27841.064
661.077	27731.936
661.205	27515.574
661.333	27421.617
661.462	27406.085
661.590	27185.532
661.718	27119.064
661.846	26932.574
661.974	26906.638
662.102	26703.000
662.230	26582.660
662.358	26395.702
662.487	26363.660
662.615	26165.532
662.743	26094.851
662.871	25988.957
662.999	25859.149
663.127	25766.106
663.255	25693.000
663.383	25599.766
663.512	25501.660
663.640	25479.532
663.768	25213.383
663.896	25175.660
664.024	25099.957
664.152	24982.766
664.280	24924.191
664.408	24791.064
664.537	24713.553
664.665	24595.489
664.793	24424.979
664.921	24331.021
665.049	24264.383
665.177	24159.787
665.305	24077.872
665.433	23903.021
665.562	23821.383
665.690	23790.745
665.818	23810.170
665.946	23551.915
666.074	23518.553
666.202	23352.255
666.330	23330.532
666.458	23163.745
666.587	23141.362
666.715	23029.489
666.843	22935.745
666.971	22772.404
667.099	22716.553
667.227	22626.255
667.355	22517.809
667.483	22455.532
667.612	22281.872
667.740	22349.298
667.868	22217.000
667.996	22115.638
668.124	21967.915
668.252	21839.894
668.380	21801.681
668.508	21673.298
668.637	21596.596
668.765	21484.362
668.893	21377.660
669.021	21293.872
669.149	21226.723
669.277	21200.766
669.405	21008.191
669.533	20960.596
669.662	21119.638
669.790	20749.213
669.918	20665.532
670.046	20498.617
670.174	20500.766
670.302	20394.638
670.430	20308.170
670.558	20174.064
670.687	20000.319
670.815	20067.957
670.943	19838.809
671.071	19680.957
671.199	19593.936
671.327	19542.745
671.455	19372.340
671.583	19297.745
671.712	19300.681
671.840	19160.191
671.968	18902.787
672.096	18856.213
672.224	18781.766
672.352	18748.064
672.480	18525.404
672.608	18383.979
672.737	18316.085
672.865	18350.957
672.993	18106.043
673.121	18001.936
673.249	17881.596
673.377	17761.957
673.505	17613.617
673.633	17533.553
673.762	17411.660
673.890	17303.277
674.018	17437.383
674.146	17217.021
674.274	17031.043
674.402	17081.957
674.530	16817.702
674.658	16695.468
674.787	16656.702
674.915	16515.447
675.043	16554.596
675.171	16414.979
675.299	16214.489
675.427	16150.489
675.555	16046.064
675.683	15963.596
675.812	15872.723
675.940	15820.298
676.068	15704.979
676.196	15601.255
676.324	15527.362
676.452	15384.106
676.580	15276.298
676.708	15200.255
676.837	15184.936
676.965	15052.362
677.093	14940.766
677.221	14837.447
677.349	14839.830
677.477	14779.234
677.605	14630.149
677.733	14602.851
677.862	14412.766
677.990	14333.532
678.118	14282.234
678.246	14183.851
678.374	14179.000
678.502	14007.872
678.630	13962.362
678.758	13895.213
678.887	13844.851
679.015	13747.000
679.143	13618.021
679.271	13576.362
679.399	13521.064
679.527	13425.617
679.655	13377.255
679.783	13376.000
679.912	13324.532
680.040	13254.362
680.168	13137.766
680.296	13057.872
680.424	12993.319
680.552	12946.723
680.680	12968.957
680.808	12888.702
680.937	12733.085
681.065	12722.574
681.193	12654.957
681.321	12629.191
681.449	12523.362
681.577	12479.383
681.705	12465.936
681.833	12345.383
681.962	12273.021
682.090	12403.723
682.218	12198.745
682.346	12125.553
682.474	12073.957
682.602	12006.021
682.730	12001.043
682.858	11896.979
682.987	11897.362
683.115	11871.362
683.243	11747.596
683.371	11677.340
683.499	11707.851
683.627	11646.617
683.755	11609.979
683.883	11647.553
684.012	11476.766
684.140	11406.553
684.268	11354.574
684.396	11319.638
684.524	11315.043
684.652	11292.638
684.780	11212.106
684.908	11161.043
685.037	11068.617
685.165	10969.915
685.293	10974.298
685.421	11008.426
685.549	10866.383
685.677	10815.638
685.805	10912.277
685.933	10785.447
686.062	10667.511
686.190	10634.617
686.318	10664.277
686.446	10543.766
686.574	10523.128
686.702	10568.489
686.830	10367.979
686.958	10282.915
687.087	10312.149
687.215	10290.574
687.343	10180.170
687.471	10147.106
687.599	10066.809
687.727	10262.021
687.855	10001.936
687.983	10013.298
688.112	10110.851
688.240	9901.915
688.368	9843.553
688.496	9819.213
688.624	9811.426
688.752	9661.936
688.880	9641.553
689.008	9552.319
689.137	9538.085
689.265	9489.766
689.393	9415.128
689.521	9397.532
689.649	9333.574
689.777	9255.277
689.905	9220.809
690.033	9205.468
690.162	9128.766
690.290	9087.936
690.418	9060.766
690.546	9065.979
690.674	9021.872
690.802	8914.596
690.930	8891.489
691.058	8794.638
691.187	8759.489
691.315	8711.085
691.443	8755.128
691.571	8624.723
691.699	8600.894
691.827	8591.149
691.955	8474.596
692.083	8443.660
692.212	8538.574
692.340	8366.064
692.468	8331.511
692.596	8320.404
692.724	8373.447
692.852	8180.191
692.980	8172.298
693.108	8094.511
693.237	8034.340
693.365	8035.404
693.493	7921.404
693.621	7905.894
693.749	7813.128
693.877	7811.213
694.005	7875.489
694.133	7744.106
694.262	7745.660
694.390	7639.638
694.518	7629.638
694.646	7623.830
694.774	7533.809
694.902	7624.191
695.030	7515.787
695.158	7383.255
695.287	7410.064
695.415	7370.468
695.543	7292.021
695.671	7393.915
695.799	7288.574
695.927	7220.383
696.055	7204.745
696.183	7180.979
696.312	7113.745
696.440	7275.596
696.568	7149.830
696.696	7066.234
696.824	6960.660
696.952	6964.681
697.080	6915.957
697.208	6867.553
697.337	6874.255
697.465	6813.447
697.593	6742.596
697.721	6730.255
697.849	6679.021
697.977	6652.319
698.105	6706.170
698.233	6591.660
698.362	6612.511
698.490	6529.149
698.618	6505.851
698.746	6594.149
698.874	6449.468
699.002	6639.553
699.130	6386.170
699.258	6396.000
699.387	6339.064
699.515	6338.277
699.643	6277.043
699.771	6279.298
699.899	6192.596
700.027	6226.191
700.155	6151.383
700.283	6107.277
700.412	6103.383
700.540	6068.277
700.668	6053.766
700.796	5968.213
700.924	5975.553
701.052	5927.362
701.180	5991.787
701.308	5894.000
701.437	5782.681
701.565	5759.149
701.693	5745.553
701.821	5706.319
701.949	5705.809
702.077	5694.213
702.205	5598.319
702.333	5597.021
702.462	5522.255
702.590	5501.426
702.718	5459.106
702.846	5425.596
702.974	5396.468
703.102	5401.426
703.230	5450.298
703.358	5396.383
703.487	5253.872
703.615	5425.404
703.743	5228.298
703.871	5188.915
703.999	5215.234
704.127	5256.489
704.255	5057.766
704.383	5244.383
704.512	5058.894
704.640	5032.085
704.768	4954.043
704.896	5042.851
705.024	4911.957
705.152	4998.532
705.280	4865.213
705.408	4799.638
705.537	4796.128
705.665	4746.468
705.793	4698.702
705.921	4665.574
706.049	4681.191
706.177	4608.340
706.305	4618.723
706.433	4693.447
706.562	4565.787
706.690	4508.702
706.818	4447.128
706.946	4638.000
707.074	4478.787
707.202	4413.170
707.330	4446.277
707.458	4372.404
707.587	4282.574
707.715	4321.574
707.843	4347.957
707.971	4322.787
708.099	4323.766
708.227	4233.106
708.355	4207.213
708.483	4171.362
708.612	4118.255
708.740	4149.574
708.868	4192.511
708.996	4086.404
709.124	4122.745
709.252	4087.872
709.380	4016.617
709.508	4070.553
709.637	3975.532
709.765	3971.851
709.893	3963.149
710.021	3949.085
710.149	3934.511
710.277	3945.234
710.405	3856.085
710.533	3832.106
710.662	3815.319
710.790	3783.319
710.918	3785.447
711.046	3802.979
711.174	3738.830
711.302	3731.532
711.430	3808.447
711.558	3642.511
711.687	3646.170
711.815	3668.362
711.943	3647.489
712.071	3633.362
712.199	3643.766
712.327	3596.830
712.455	3544.787
712.583	3593.000
712.712	3540.340
712.840	3516.617
712.968	3488.085
713.096	3499.809
713.224	3419.723
713.352	3456.787
713.480	3413.085
713.608	3406.085
713.737	3389.213
713.865	3402.468
713.993	3430.149
714.121	3364.702
714.249	3366.404
714.377	3428.128
714.505	3347.021
714.633	3485.936
714.762	3353.362
714.890	3275.574
715.018	3289.766
715.146	3290.191
715.274	3323.298
715.402	3389.106
715.530	3303.000
715.658	3187.298
715.787	3167.553
715.915	3340.979
716.043	3151.617
716.171	3212.787
716.299	3212.660
716.427	3143.660
716.555	3108.596
716.683	3108.319
716.812	3080.936
716.940	3099.468
717.068	3016.340
717.196	3228.213
717.324	3122.128
717.452	3068.979
717.580	2985.872
717.708	2985.851
717.837	3034.489
717.965	2927.979
718.093	2937.404
718.221	2862.681
718.349	2934.872
718.477	2904.532
718.605	2910.426
718.733	2856.702
718.862	2867.319
718.990	2831.532
719.118	2850.787
719.246	2787.362
719.374	2854.234
719.502	2833.383
719.630	2929.638
719.758	2733.128
719.887	2729.511
720.015	2929.234
720.143	2688.277
720.271	2681.617
720.399	2710.723
720.527	2720.064
720.655	2727.681
720.783	2759.809
720.912	2630.617
721.040	2618.936
721.168	2623.362
721.296	2655.298
721.424	2599.128
721.552	2547.809
721.680	2553.766
721.808	2591.574
721.937	2568.745
722.065	2640.064
722.193	2638.532
722.321	2541.660
722.449	2528.234
722.577	2498.511
722.705	2516.383
722.833	2536.064
722.962	2522.660
723.090	2487.234
723.218	2453.426
723.346	2457.766
723.474	2474.851
723.602	2519.128
723.730	2493.702
723.858	2518.106
723.987	2464.830
724.115	2417.574
724.243	2433.872
724.371	2441.511
724.499	2433.426
724.627	2413.936
724.755	2391.447
724.883	2405.106
725.012	2373.234
725.140	2339.319
725.268	2305.957
725.396	2329.043
725.524	2297.021
725.652	2313.809
725.780	2288.000
725.908	2272.596
726.037	2270.298
726.165	2248.340
726.293	2212.574
726.421	2223.532
726.549	2226.489
726.677	2206.702
726.805	2192.617
726.933	2202.298
727.062	2147.447
727.190	2168.979
727.318	2137.745
727.446	2151.660
727.574	2139.468
727.702	2150.043
727.830	2092.234
727.958	2138.660
728.087	2099.787
728.215	2126.128
728.343	2053.681
728.471	2062.553
728.599	2059.574
728.727	2062.766
728.855	2053.830
728.983	2045.766
729.112	2018.702
