0pol_70_120_at_750.00nm_cut_at_984.50Y_01.dat
24.04.2023
10:54:10
cut middle at Y: 984.50
top cursor: 1008 down cursor: 961 mean of: 47 lines , 2560 datapoints
wavelength(nm)	intensity[arb. units]
585.996	12861.851
586.124	12543.170
586.252	12465.298
586.380	12536.447
586.508	12551.213
586.637	12650.511
586.765	12687.128
586.893	12701.128
587.021	12790.234
587.149	12841.617
587.277	12777.255
587.405	12869.702
587.533	12792.383
587.662	12946.021
587.790	12916.574
587.918	12839.787
588.046	12861.532
588.174	12831.170
588.302	12869.404
588.430	12816.000
588.558	12813.021
588.687	12883.213
588.815	12860.362
588.943	12846.426
589.071	12826.617
589.199	12902.277
589.327	12885.106
589.455	12842.149
589.583	12973.660
589.712	12983.511
589.840	12868.745
589.968	12892.340
590.096	12883.574
590.224	12911.447
590.352	12897.766
590.480	12953.596
590.608	12895.915
590.737	12988.447
590.865	12979.255
590.993	12897.426
591.121	12972.064
591.249	12957.000
591.377	12951.277
591.505	12971.191
591.633	12973.043
591.762	12987.170
591.890	13149.617
592.018	12969.043
592.146	12990.489
592.274	13070.021
592.402	13022.021
592.530	13090.596
592.658	13313.660
592.787	13167.979
592.915	13260.319
593.043	13214.234
593.171	13176.149
593.299	13246.745
593.427	13292.234
593.555	13333.277
593.683	13316.681
593.812	13371.532
593.940	13356.043
594.068	13406.915
594.196	13512.170
594.324	13546.532
594.452	13474.915
594.580	13534.745
594.708	13566.574
594.837	13552.957
594.965	13653.574
595.093	13634.723
595.221	13715.745
595.349	13872.894
595.477	13755.553
595.605	13814.681
595.733	13735.574
595.862	14001.213
595.990	13807.021
596.118	13867.851
596.246	14087.277
596.374	13922.830
596.502	13946.362
596.630	13963.766
596.758	13937.043
596.887	13972.957
597.015	14010.979
597.143	13987.638
597.271	14019.064
597.399	13994.362
597.527	14030.043
597.655	13989.362
597.783	13970.043
597.912	13947.383
598.040	13963.787
598.168	14018.745
598.296	14036.362
598.424	13957.064
598.552	13989.766
598.680	13885.404
598.808	14047.298
598.937	13964.298
599.065	13977.468
599.193	14038.894
599.321	14076.383
599.449	13870.532
599.577	13956.787
599.705	13981.872
599.833	13959.851
599.962	13987.319
600.090	14024.298
600.218	14048.404
600.346	14125.340
600.474	14044.468
600.602	14048.000
600.730	14082.851
600.858	14154.213
600.987	14303.064
601.115	14231.894
601.243	14226.787
601.371	14236.128
601.499	14270.170
601.627	14382.617
601.755	14363.723
601.883	14449.213
602.012	14479.638
602.140	14448.957
602.268	14610.809
602.396	14548.468
602.524	14651.681
602.652	14634.170
602.780	14657.106
602.908	14699.106
603.037	14783.489
603.165	14806.255
603.293	14869.511
603.421	14845.234
603.549	14939.255
603.677	15054.936
603.805	14991.851
603.933	15057.128
604.062	15179.638
604.190	15169.064
604.318	15234.468
604.446	15268.894
604.574	15271.149
604.702	15346.340
604.830	15339.936
604.958	15412.723
605.087	15448.894
605.215	15479.383
605.343	15494.426
605.471	15519.362
605.599	15606.043
605.727	15559.213
605.855	15696.660
605.983	15669.830
606.112	15713.128
606.240	15686.574
606.368	15709.362
606.496	15931.574
606.624	15757.404
606.752	15839.723
606.880	15887.255
607.008	15991.809
607.137	15903.340
607.265	15755.660
607.393	15861.574
607.521	15923.468
607.649	15810.723
607.777	15801.447
607.905	15929.383
608.033	15852.085
608.162	15832.596
608.290	15901.106
608.418	15783.404
608.546	15887.894
608.674	15864.021
608.802	15802.553
608.930	15830.660
609.058	15822.936
609.187	15911.915
609.315	15878.468
609.443	15881.000
609.571	15931.872
609.699	15823.660
609.827	15857.085
609.955	15893.064
610.083	15837.723
610.212	15821.787
610.340	15829.787
610.468	15913.851
610.596	15905.149
610.724	15925.426
610.852	15894.596
610.980	15868.128
611.108	15901.553
611.237	15841.553
611.365	15888.872
611.493	15866.085
611.621	15897.617
611.749	15945.319
611.877	15986.170
612.005	15956.191
612.133	15999.043
612.262	16004.787
612.390	16061.255
612.518	16157.638
612.646	16215.191
612.774	16101.702
612.902	16209.830
613.030	16287.170
613.158	16373.574
613.287	16291.766
613.415	16271.277
613.543	16187.064
613.671	16303.128
613.799	16356.596
613.927	16283.532
614.055	16253.957
614.183	16445.021
614.312	16379.511
614.440	16533.298
614.568	16457.936
614.696	16562.489
614.824	16682.787
614.952	16479.681
615.080	16558.936
615.208	16701.213
615.337	16662.979
615.465	16782.574
615.593	16938.915
615.721	17019.404
615.849	17113.000
615.977	17134.553
616.105	17059.021
616.233	17031.830
616.362	17086.128
616.490	17157.894
616.618	17180.340
616.746	17195.085
616.874	17299.872
617.002	17202.128
617.130	17250.915
617.258	17437.255
617.387	17311.851
617.515	17325.894
617.643	17366.128
617.771	17361.064
617.899	17360.319
618.027	17344.936
618.155	17441.553
618.283	17360.170
618.412	17408.702
618.540	17434.957
618.668	17417.277
618.796	17465.404
618.924	17553.404
619.052	17500.191
619.180	17488.468
619.308	17489.149
619.437	17490.383
619.565	17483.106
619.693	17459.532
619.821	17490.468
619.949	17437.511
620.077	17532.660
620.205	17508.745
620.333	17503.447
620.462	17556.872
620.590	17563.191
620.718	17465.787
620.846	17560.426
620.974	17561.000
621.102	17550.979
621.230	17526.340
621.358	17620.894
621.487	17466.851
621.615	17502.745
621.743	17535.489
621.871	17531.064
621.999	17623.064
622.127	17505.255
622.255	17522.000
622.383	17548.809
622.512	17520.915
622.640	17621.234
622.768	17519.872
622.896	17538.830
623.024	17514.128
623.152	17594.191
623.280	17563.021
623.408	17488.383
623.537	17528.851
623.665	17480.553
623.793	17526.681
623.921	17464.426
624.049	17483.362
624.177	17453.170
624.305	17465.660
624.433	17486.745
624.562	17550.234
624.690	17447.383
624.818	17542.723
624.946	17649.936
625.074	17525.277
625.202	17457.915
625.330	17452.340
625.458	17492.766
625.587	17519.596
625.715	17483.298
625.843	17626.383
625.971	17536.596
626.099	17516.511
626.227	17518.149
626.355	17420.340
626.483	17606.681
626.612	17595.596
626.740	17569.617
626.868	17561.979
626.996	17573.532
627.124	17466.979
627.252	17578.234
627.380	17652.936
627.508	17626.362
627.637	17646.596
627.765	17630.702
627.893	17675.213
628.021	17726.617
628.149	17980.723
628.277	18087.489
628.405	18067.894
628.533	17794.149
628.662	17827.638
628.790	17805.957
628.918	17829.894
629.046	17835.043
629.174	17976.894
629.302	18214.894
629.430	18064.766
629.558	17967.149
629.687	17947.064
629.815	18032.255
629.943	18040.362
630.071	18060.979
630.199	18163.149
630.327	18093.787
630.455	18128.681
630.583	18242.872
630.712	18122.574
630.840	18235.787
630.968	18267.936
631.096	18217.319
631.224	18234.277
631.352	18270.872
631.480	18275.277
631.608	18303.511
631.737	18426.617
631.865	18485.638
631.993	18275.149
632.121	18447.319
632.249	18397.277
632.377	18457.277
632.505	18379.894
632.633	18210.021
632.762	18320.745
632.890	18337.021
633.018	18221.298
633.146	18414.617
633.274	18264.809
633.402	18307.021
633.530	18203.106
633.658	18406.489
633.787	18153.723
633.915	18267.851
634.043	18204.745
634.171	18181.936
634.299	18161.681
634.427	18178.723
634.555	18123.191
634.683	18074.362
634.812	18033.787
634.940	18010.404
635.068	17937.191
635.196	17974.638
635.324	17933.745
635.452	17938.426
635.580	17944.809
635.708	17811.489
635.837	17880.255
635.965	17791.511
636.093	17720.191
636.221	17748.617
636.349	17814.660
636.477	17652.426
636.605	17770.915
636.733	17552.957
636.862	17581.021
636.990	17537.660
637.118	17576.894
637.246	17552.064
637.374	17459.979
637.502	17419.191
637.630	17412.957
637.758	17397.106
637.887	17375.511
638.015	17314.702
638.143	17341.021
638.271	17281.851
638.399	17296.298
638.527	17259.362
638.655	17288.362
638.783	17401.043
638.912	17245.553
639.040	17211.255
639.168	17274.617
639.296	17170.638
639.424	17308.468
639.552	17124.255
639.680	17334.043
639.808	17191.894
639.937	17161.319
640.065	17091.191
640.193	17213.553
640.321	17102.596
640.449	17123.596
640.577	17229.064
640.705	17143.085
640.833	17234.574
640.962	17126.298
641.090	17138.936
641.218	17090.723
641.346	17145.830
641.474	17208.000
641.602	17138.979
641.730	17100.787
641.858	17170.255
641.987	17142.064
642.115	17141.426
642.243	17181.787
642.371	17140.574
642.499	17133.787
642.627	17154.553
642.755	17241.702
642.883	17259.170
643.012	17181.979
643.140	17103.702
643.268	17183.489
643.396	17195.511
643.524	17350.298
643.652	17233.404
643.780	17154.170
643.908	17246.511
644.037	17278.383
644.165	17187.468
644.293	17176.936
644.421	17191.085
644.549	17224.894
644.677	17172.340
644.805	17201.936
644.933	17101.021
645.062	17120.511
645.190	17104.957
645.318	17219.489
645.446	17087.319
645.574	17061.128
645.702	17022.745
645.830	17261.426
645.958	17023.277
646.087	17197.638
646.215	16955.340
646.343	17166.532
646.471	17036.894
646.599	17002.660
646.727	16951.085
646.855	16909.213
646.983	16924.255
647.112	16839.170
647.240	16945.745
647.368	16800.787
647.496	16887.404
647.624	16809.936
647.752	16757.362
647.880	16740.532
648.008	16671.830
648.137	16645.915
648.265	16640.660
648.393	16609.702
648.521	16572.809
648.649	16551.064
648.777	16481.511
648.905	16480.851
649.033	16461.872
649.162	16359.489
649.290	16434.277
649.418	16299.553
649.546	16395.319
649.674	16291.106
649.802	16208.149
649.930	16396.638
650.058	16172.255
650.187	16175.234
650.315	16110.191
650.443	16150.255
650.571	16078.426
650.699	16084.468
650.827	15985.745
650.955	16034.468
651.083	15989.553
651.212	15985.362
651.340	15975.213
651.468	15917.894
651.596	15828.894
651.724	15865.447
651.852	15802.085
651.980	15727.851
652.108	15788.702
652.237	15737.426
652.365	15797.489
652.493	15695.191
652.621	15624.745
652.749	15665.255
652.877	15593.617
653.005	15554.234
653.133	15521.617
653.262	15559.426
653.390	15516.404
653.518	15529.277
653.646	15485.660
653.774	15635.340
653.902	15445.170
654.030	15373.851
654.158	15379.872
654.287	15381.787
654.415	15269.149
654.543	15329.000
654.671	15321.255
654.799	15228.532
654.927	15166.681
655.055	15124.362
655.183	15153.936
655.312	15149.936
655.440	15144.213
655.568	15094.298
655.696	15115.936
655.824	15163.277
655.952	15040.511
656.080	14909.340
656.208	15035.532
656.337	14909.170
656.465	14883.809
656.593	14864.787
656.721	14802.894
656.849	14805.787
656.977	14740.298
657.105	14699.809
657.233	14625.404
657.362	14651.277
657.490	14598.277
657.618	14605.106
657.746	14540.468
657.874	14499.723
658.002	14498.957
658.130	14427.894
658.258	14395.894
658.387	14381.766
658.515	14307.936
658.643	14304.915
658.771	14322.064
658.899	14381.170
659.027	14198.660
659.155	14230.787
659.283	14307.191
659.412	14151.745
659.540	14230.191
659.668	14080.957
659.796	14077.957
659.924	14123.660
660.052	13970.745
660.180	14018.957
660.308	14005.596
660.437	13949.213
660.565	13875.404
660.693	13854.319
660.821	13873.936
660.949	13870.319
661.077	13780.957
661.205	13802.787
661.333	13718.660
661.462	13823.383
661.590	13753.745
661.718	13905.957
661.846	13782.468
661.974	13857.362
662.102	13673.043
662.230	13655.255
662.358	13593.872
662.487	13598.574
662.615	13568.383
662.743	13566.596
662.871	13566.000
662.999	13505.745
663.127	13473.660
663.255	13615.915
663.383	13535.319
663.512	13469.617
663.640	13538.702
663.768	13473.617
663.896	13543.021
664.024	13487.404
664.152	13467.766
664.280	13515.809
664.408	13478.447
664.537	13495.000
664.665	13406.362
664.793	13372.638
664.921	13314.830
665.049	13339.723
665.177	13347.447
665.305	13347.851
665.433	13337.957
665.562	13291.723
665.690	13277.362
665.818	13487.617
665.946	13315.426
666.074	13241.872
666.202	13228.894
666.330	13272.872
666.458	13248.128
666.587	13208.936
666.715	13208.234
666.843	13202.255
666.971	13140.894
667.099	13136.362
667.227	13096.511
667.355	13115.234
667.483	13098.787
667.612	13171.404
667.740	13091.298
667.868	13130.872
667.996	13118.915
668.124	13017.106
668.252	13009.745
668.380	13001.660
668.508	12995.894
668.637	12969.468
668.765	12957.340
668.893	12994.426
669.021	12905.000
669.149	12915.511
669.277	12976.957
669.405	12852.851
669.533	12886.489
669.662	13136.447
669.790	12914.085
669.918	12902.128
670.046	12809.915
670.174	12895.149
670.302	12822.851
670.430	12763.553
670.558	12783.426
670.687	12684.596
670.815	12828.085
670.943	12674.553
671.071	12673.426
671.199	12594.979
671.327	12586.830
671.455	12610.915
671.583	12554.702
671.712	12646.809
671.840	12599.149
671.968	12435.638
672.096	12401.511
672.224	12355.000
672.352	12495.809
672.480	12293.064
672.608	12259.255
672.737	12228.723
672.865	12330.255
672.993	12151.000
673.121	12091.426
673.249	12051.638
673.377	12041.638
673.505	11977.638
673.633	11970.511
673.762	11880.872
673.890	11883.447
674.018	12103.106
674.146	11844.234
674.274	11782.660
674.402	11916.319
674.530	11776.426
674.658	11690.851
674.787	11682.362
674.915	11606.681
675.043	11709.617
675.171	11619.277
675.299	11586.340
675.427	11529.957
675.555	11415.681
675.683	11464.340
675.812	11412.277
675.940	11391.255
676.068	11338.000
676.196	11332.191
676.324	11307.064
676.452	11258.809
676.580	11157.170
676.708	11194.447
676.837	11183.574
676.965	11125.021
677.093	11091.681
677.221	11063.085
677.349	11089.660
677.477	11029.277
677.605	10997.021
677.733	10972.957
677.862	10864.936
677.990	10855.106
678.118	10834.957
678.246	10829.319
678.374	10858.191
678.502	10731.851
678.630	10743.681
678.758	10700.851
678.887	10654.298
679.015	10682.340
679.143	10612.745
679.271	10585.809
679.399	10646.043
679.527	10611.213
679.655	10506.298
679.783	10557.149
679.912	10591.383
680.040	10541.723
680.168	10523.489
680.296	10496.128
680.424	10363.277
680.552	10425.596
680.680	10527.128
680.808	10410.362
680.937	10381.638
681.065	10335.085
681.193	10346.872
681.321	10365.830
681.449	10313.532
681.577	10374.660
681.705	10350.447
681.833	10261.894
681.962	10242.830
682.090	10384.043
682.218	10241.957
682.346	10252.021
682.474	10216.064
682.602	10223.702
682.730	10227.191
682.858	10169.851
682.987	10235.936
683.115	10166.596
683.243	10130.638
683.371	10112.766
683.499	10145.021
683.627	10146.426
683.755	10122.766
683.883	10250.149
684.012	10081.511
684.140	10031.277
684.268	10007.191
684.396	10049.851
684.524	10047.170
684.652	10063.319
684.780	10057.553
684.908	10022.553
685.037	9968.979
685.165	9922.660
685.293	9904.447
685.421	10017.638
685.549	9914.255
685.677	9883.872
685.805	10031.957
685.933	9939.638
686.062	9804.915
686.190	9858.660
686.318	9852.489
686.446	9833.426
686.574	9808.277
686.702	9912.000
686.830	9744.553
686.958	9739.489
687.087	9726.511
687.215	9764.957
687.343	9688.298
687.471	9668.596
687.599	9695.681
687.727	9839.766
687.855	9662.000
687.983	9698.574
688.112	9718.936
688.240	9581.894
688.368	9596.213
688.496	9582.128
688.624	9636.191
688.752	9497.085
688.880	9549.638
689.008	9511.596
689.137	9508.234
689.265	9422.170
689.393	9442.319
689.521	9356.745
689.649	9369.745
689.777	9322.213
689.905	9333.936
690.033	9315.128
690.162	9267.340
690.290	9298.213
690.418	9223.638
690.546	9340.638
690.674	9307.043
690.802	9216.660
690.930	9203.106
691.058	9145.128
691.187	9181.681
691.315	9091.447
691.443	9157.255
691.571	9090.979
691.699	9050.000
691.827	9107.915
691.955	9035.489
692.083	9035.319
692.212	9126.213
692.340	8953.851
692.468	8930.404
692.596	8975.064
692.724	9095.298
692.852	8931.894
692.980	8945.234
693.108	8885.660
693.237	8827.447
693.365	8817.043
693.493	8731.043
693.621	8706.830
693.749	8771.426
693.877	8718.660
694.005	8795.404
694.133	8692.809
694.262	8734.553
694.390	8607.489
694.518	8627.766
694.646	8596.170
694.774	8592.298
694.902	8729.426
695.030	8682.830
695.158	8494.447
695.287	8547.830
695.415	8525.894
695.543	8485.702
695.671	8586.511
695.799	8489.511
695.927	8467.128
696.055	8435.553
696.183	8397.213
696.312	8405.426
696.440	8534.681
696.568	8447.191
696.696	8402.787
696.824	8349.851
696.952	8316.936
697.080	8343.809
697.208	8245.085
697.337	8331.617
697.465	8271.745
697.593	8198.340
697.721	8229.809
697.849	8235.064
697.977	8190.213
698.105	8251.489
698.233	8150.745
698.362	8185.064
698.490	8148.085
698.618	8148.979
698.746	8219.021
698.874	8111.234
699.002	8319.085
699.130	8099.596
699.258	8100.574
699.387	8004.489
699.515	8080.000
699.643	8021.191
699.771	8054.234
699.899	8026.787
700.027	8021.106
700.155	7922.277
700.283	7961.766
700.412	7944.936
700.540	7922.894
700.668	7920.362
700.796	7862.745
700.924	7857.702
701.052	7825.426
701.180	7940.191
701.308	7839.468
701.437	7750.043
701.565	7737.021
701.693	7707.979
701.821	7717.745
701.949	7685.170
702.077	7717.447
702.205	7612.574
702.333	7618.979
702.462	7617.936
702.590	7579.106
702.718	7553.170
702.846	7523.064
702.974	7486.085
703.102	7508.000
703.230	7556.830
703.358	7503.851
703.487	7398.213
703.615	7595.043
703.743	7378.043
703.871	7361.191
703.999	7340.043
704.127	7441.468
704.255	7241.426
704.383	7441.085
704.512	7238.830
704.640	7227.255
704.768	7175.085
704.896	7228.787
705.024	7154.213
705.152	7240.213
705.280	7085.681
705.408	7054.702
705.537	7061.064
705.665	7006.702
705.793	6985.489
705.921	6968.043
706.049	6968.681
706.177	6933.532
706.305	6919.426
706.433	6995.894
706.562	6892.872
706.690	6831.936
706.818	6801.872
706.946	7044.638
707.074	6811.809
707.202	6736.213
707.330	6801.191
707.458	6773.213
707.587	6701.936
707.715	6662.064
707.843	6764.723
707.971	6718.340
708.099	6737.617
708.227	6615.234
708.355	6648.255
708.483	6597.915
708.612	6575.511
708.740	6609.447
708.868	6666.128
708.996	6594.404
709.124	6599.340
709.252	6521.404
709.380	6488.362
709.508	6523.787
709.637	6494.170
709.765	6489.298
709.893	6487.191
710.021	6495.702
710.149	6458.894
710.277	6494.638
710.405	6380.277
710.533	6446.149
710.662	6394.468
710.790	6372.766
710.918	6384.043
711.046	6371.383
711.174	6368.745
711.302	6357.596
711.430	6427.830
711.558	6256.553
711.687	6313.298
711.815	6334.362
711.943	6291.617
712.071	6324.447
712.199	6359.213
712.327	6292.128
712.455	6220.553
712.583	6296.957
712.712	6233.085
712.840	6257.489
712.968	6247.957
713.096	6244.702
713.224	6176.085
713.352	6230.511
713.480	6174.170
713.608	6167.340
713.737	6204.489
713.865	6190.617
713.993	6242.106
714.121	6143.191
714.249	6185.298
714.377	6259.511
714.505	6188.383
714.633	6323.043
714.762	6214.277
714.890	6137.511
715.018	6166.383
715.146	6156.468
715.274	6202.021
715.402	6302.447
715.530	6175.702
715.658	6093.277
715.787	6124.638
715.915	6272.362
716.043	6060.021
716.171	6159.149
716.299	6169.957
716.427	6064.936
716.555	6020.511
716.683	6034.000
716.812	6039.702
716.940	6071.894
717.068	5979.000
717.196	6203.234
717.324	6123.213
717.452	6044.404
717.580	6025.234
717.708	5988.340
717.837	6044.149
717.965	5931.532
718.093	5959.340
718.221	5941.723
718.349	5954.936
718.477	5991.468
718.605	5943.234
718.733	5958.894
718.862	5894.149
718.990	5902.213
719.118	5913.872
719.246	5849.106
719.374	5954.660
719.502	5920.447
719.630	5986.915
719.758	5774.170
719.887	5794.723
720.015	5973.340
720.143	5784.340
720.271	5749.957
720.399	5791.745
720.527	5816.447
720.655	5850.553
720.783	5830.766
720.912	5719.638
721.040	5712.723
721.168	5668.404
721.296	5751.426
721.424	5705.255
721.552	5624.021
721.680	5631.277
721.808	5653.468
721.937	5629.915
722.065	5720.106
722.193	5734.021
722.321	5594.574
722.449	5568.894
722.577	5583.745
722.705	5543.638
722.833	5569.021
722.962	5575.064
723.090	5501.426
723.218	5455.596
723.346	5477.191
723.474	5445.766
723.602	5591.021
723.730	5523.915
723.858	5590.362
723.987	5492.128
724.115	5538.851
724.243	5436.319
724.371	5433.894
724.499	5421.085
724.627	5355.085
724.755	5344.319
724.883	5344.277
725.012	5344.085
725.140	5378.319
725.268	5324.957
725.396	5273.404
725.524	5225.638
725.652	5288.468
725.780	5289.298
725.908	5321.213
726.037	5409.255
726.165	5233.277
726.293	5236.532
726.421	5229.894
726.549	5203.787
726.677	5202.000
726.805	5166.128
726.933	5166.106
727.062	5209.745
727.190	5201.489
727.318	5125.277
727.446	5150.915
727.574	5131.851
727.702	5242.894
727.830	5093.213
727.958	5184.617
728.087	5130.021
728.215	5193.979
728.343	5156.362
728.471	5048.404
728.599	5039.660
728.727	5168.319
728.855	5052.277
728.983	5039.085
729.112	5052.021
729.240	4983.489
