0pol_90_130_at_750.00nm_cut_at_984.50Y_01.dat
24.04.2023
10:45:54
cut middle at Y: 984.50
top cursor: 1008 down cursor: 961 mean of: 47 lines , 2560 datapoints
wavelength(nm)	intensity[arb. units]
585.996	11615.766
586.124	11268.043
586.252	11220.255
586.380	11258.809
586.508	11329.489
586.637	11381.340
586.765	11451.681
586.893	11488.745
587.021	11500.766
587.149	11555.000
587.277	11504.511
587.405	11594.532
587.533	11481.085
587.662	11666.191
587.790	11608.915
587.918	11544.447
588.046	11585.021
588.174	11531.511
588.302	11586.511
588.430	11552.979
588.558	11593.596
588.687	11585.702
588.815	11541.064
588.943	11523.936
589.071	11532.149
589.199	11580.596
589.327	11526.021
589.455	11501.553
589.583	11645.426
589.712	11623.383
589.840	11555.255
589.968	11564.936
590.096	11572.851
590.224	11582.021
590.352	11542.915
590.480	11574.872
590.608	11577.660
590.737	11688.128
590.865	11659.574
590.993	11523.723
591.121	11593.617
591.249	11655.213
591.377	11630.404
591.505	11637.170
591.633	11696.851
591.762	11640.234
591.890	11776.468
592.018	11668.596
592.146	11624.596
592.274	11655.106
592.402	11677.787
592.530	11658.660
592.658	11883.638
592.787	11729.766
592.915	11918.191
593.043	11790.404
593.171	11799.106
593.299	11858.213
593.427	11855.000
593.555	11892.149
593.683	11877.362
593.812	11925.191
593.940	11959.617
594.068	11963.149
594.196	12053.851
594.324	11987.021
594.452	12040.638
594.580	12086.340
594.708	12124.702
594.837	12061.596
594.965	12165.638
595.093	12144.745
595.221	12181.170
595.349	12341.340
595.477	12249.340
595.605	12251.064
595.733	12231.702
595.862	12499.213
595.990	12310.681
596.118	12333.766
596.246	12469.489
596.374	12383.660
596.502	12402.106
596.630	12381.234
596.758	12373.979
596.887	12365.511
597.015	12402.957
597.143	12411.043
597.271	12411.809
597.399	12443.255
597.527	12379.000
597.655	12412.468
597.783	12411.638
597.912	12371.085
598.040	12432.234
598.168	12440.106
598.296	12393.745
598.424	12428.894
598.552	12397.191
598.680	12303.383
598.808	12450.149
598.937	12357.596
599.065	12347.298
599.193	12447.404
599.321	12358.191
599.449	12335.128
599.577	12273.723
599.705	12370.809
599.833	12297.468
599.962	12322.234
600.090	12382.340
600.218	12378.979
600.346	12479.043
600.474	12370.660
600.602	12347.660
600.730	12454.532
600.858	12488.660
600.987	12610.489
601.115	12516.234
601.243	12531.936
601.371	12520.128
601.499	12631.234
601.627	12630.170
601.755	12630.809
601.883	12745.404
602.012	12720.340
602.140	12728.085
602.268	12875.957
602.396	12801.362
602.524	12920.957
602.652	12832.766
602.780	12922.085
602.908	12944.511
603.037	12984.638
603.165	12987.128
603.293	13091.617
603.421	13083.128
603.549	13158.362
603.677	13242.319
603.805	13185.702
603.933	13232.362
604.062	13368.574
604.190	13332.149
604.318	13312.809
604.446	13377.319
604.574	13399.936
604.702	13493.255
604.830	13473.617
604.958	13471.128
605.087	13510.106
605.215	13536.191
605.343	13588.298
605.471	13598.745
605.599	13710.809
605.727	13668.064
605.855	13773.213
605.983	13633.362
606.112	13718.617
606.240	13705.106
606.368	13731.383
606.496	13952.468
606.624	13751.830
606.752	13780.319
606.880	13904.021
607.008	13999.277
607.137	13943.723
607.265	13704.128
607.393	13786.851
607.521	13935.809
607.649	13789.234
607.777	13840.064
607.905	13845.553
608.033	13798.660
608.162	13818.957
608.290	13827.872
608.418	13748.383
608.546	13843.957
608.674	13781.532
608.802	13771.064
608.930	13775.851
609.058	13792.277
609.187	13879.809
609.315	13823.340
609.443	13793.553
609.571	13843.596
609.699	13806.298
609.827	13834.404
609.955	13784.170
610.083	13784.489
610.212	13780.830
610.340	13732.979
610.468	13806.447
610.596	13795.404
610.724	13793.638
610.852	13770.553
610.980	13760.830
611.108	13828.000
611.237	13724.809
611.365	13768.702
611.493	13742.596
611.621	13773.043
611.749	13808.936
611.877	13836.660
612.005	13834.532
612.133	13876.596
612.262	13922.213
612.390	13890.340
612.518	13958.638
612.646	14041.404
612.774	13909.511
612.902	13995.766
613.030	14032.894
613.158	14182.106
613.287	14120.064
613.415	14076.213
613.543	14007.660
613.671	14014.766
613.799	14082.979
613.927	14010.681
614.055	14027.298
614.183	14233.170
614.312	14062.213
614.440	14188.043
614.568	14134.532
614.696	14153.149
614.824	14361.319
614.952	14213.532
615.080	14210.128
615.208	14349.957
615.337	14356.894
615.465	14398.468
615.593	14529.064
615.721	14712.064
615.849	14646.191
615.977	14741.383
616.105	14688.064
616.233	14549.021
616.362	14668.532
616.490	14643.191
616.618	14677.064
616.746	14727.362
616.874	14828.404
617.002	14737.149
617.130	14777.170
617.258	14892.043
617.387	14785.255
617.515	14824.766
617.643	14800.915
617.771	14813.255
617.899	14827.489
618.027	14800.340
618.155	14939.936
618.283	14772.191
618.412	14864.638
618.540	14892.638
618.668	14836.851
618.796	14885.574
618.924	15069.851
619.052	14875.809
619.180	14874.936
619.308	14892.340
619.437	14922.979
619.565	14892.957
619.693	14835.191
619.821	14838.830
619.949	14839.936
620.077	14937.681
620.205	14944.638
620.333	15001.277
620.462	14893.468
620.590	14966.277
620.718	14902.574
620.846	14929.213
620.974	14882.553
621.102	14908.191
621.230	14841.851
621.358	14996.404
621.487	14792.702
621.615	14872.766
621.743	14931.553
621.871	14907.766
621.999	14929.340
622.127	14937.787
622.255	14915.319
622.383	14849.617
622.512	14806.383
622.640	14958.553
622.768	14779.277
622.896	14788.340
623.024	14768.702
623.152	14883.362
623.280	14874.021
623.408	14680.064
623.537	14745.404
623.665	14736.277
623.793	14796.809
623.921	14743.404
624.049	14658.468
624.177	14697.128
624.305	14732.787
624.433	14694.383
624.562	14704.872
624.690	14726.681
624.818	14775.000
624.946	14876.170
625.074	14710.213
625.202	14647.809
625.330	14641.617
625.458	14709.596
625.587	14645.681
625.715	14726.809
625.843	14812.851
625.971	14686.787
626.099	14726.255
626.227	14689.021
626.355	14645.191
626.483	14737.191
626.612	14677.468
626.740	14689.277
626.868	14741.766
626.996	14738.468
627.124	14700.234
627.252	14690.170
627.380	14719.149
627.508	14744.277
627.637	14725.426
627.765	14787.191
627.893	14847.170
628.021	14837.894
628.149	15063.106
628.277	15173.234
628.405	15124.596
628.533	14855.170
628.662	14933.596
628.790	14864.085
628.918	14923.277
629.046	14960.638
629.174	15088.362
629.302	15226.809
629.430	15071.830
629.558	14952.447
629.687	14999.404
629.815	15020.298
629.943	15060.064
630.071	15107.064
630.199	15017.872
630.327	15083.128
630.455	15086.340
630.583	15208.191
630.712	15155.894
630.840	15150.851
630.968	15200.638
631.096	15125.766
631.224	15122.277
631.352	15171.809
631.480	15195.979
631.608	15246.426
631.737	15321.362
631.865	15341.255
631.993	15183.447
632.121	15357.681
632.249	15298.191
632.377	15260.979
632.505	15271.979
632.633	15092.660
632.762	15168.191
632.890	15268.617
633.018	15049.319
633.146	15255.000
633.274	15105.851
633.402	15141.085
633.530	15125.085
633.658	15231.128
633.787	15061.787
633.915	15130.234
634.043	15051.043
634.171	15043.149
634.299	15019.447
634.427	15001.511
634.555	14969.787
634.683	14925.191
634.812	14901.085
634.940	14901.149
635.068	14792.234
635.196	14865.766
635.324	14868.298
635.452	14851.617
635.580	14721.234
635.708	14660.723
635.837	14687.021
635.965	14702.723
636.093	14636.596
636.221	14608.723
636.349	14659.766
636.477	14537.723
636.605	14731.021
636.733	14501.574
636.862	14483.894
636.990	14464.489
637.118	14503.064
637.246	14470.043
637.374	14430.383
637.502	14360.468
637.630	14332.766
637.758	14308.702
637.887	14301.957
638.015	14252.872
638.143	14231.298
638.271	14251.638
638.399	14206.830
638.527	14181.894
638.655	14181.447
638.783	14379.000
638.912	14177.851
639.040	14172.340
639.168	14179.298
639.296	14095.617
639.424	14297.766
639.552	14108.213
639.680	14246.745
639.808	14170.298
639.937	14038.106
640.065	14018.787
640.193	14123.830
640.321	14024.447
640.449	14094.106
640.577	14108.149
640.705	14003.766
640.833	14112.064
640.962	14008.277
641.090	13991.383
641.218	13967.213
641.346	14018.319
641.474	14023.787
641.602	13968.191
641.730	14012.702
641.858	14014.128
641.987	14041.021
642.115	14026.447
642.243	14014.298
642.371	14057.043
642.499	14020.149
642.627	14072.915
642.755	14105.596
642.883	14138.255
643.012	14034.043
643.140	14052.830
643.268	14046.404
643.396	14041.149
643.524	14112.702
643.652	14086.596
643.780	13998.362
643.908	14080.532
644.037	14117.170
644.165	14025.362
644.293	14047.340
644.421	14004.957
644.549	14057.745
644.677	13996.213
644.805	13978.745
644.933	13937.362
645.062	13986.170
645.190	13950.064
645.318	14047.851
645.446	13927.000
645.574	13960.362
645.702	13899.745
645.830	14005.596
645.958	13843.043
646.087	14052.277
646.215	13788.830
646.343	14002.298
646.471	13836.319
646.599	13866.234
646.727	13743.936
646.855	13741.000
646.983	13800.362
647.112	13735.702
647.240	13859.468
647.368	13680.319
647.496	13765.638
647.624	13607.106
647.752	13562.021
647.880	13632.957
648.008	13617.106
648.137	13529.851
648.265	13492.830
648.393	13482.213
648.521	13511.894
648.649	13476.447
648.777	13474.766
648.905	13380.617
649.033	13356.766
649.162	13316.340
649.290	13359.894
649.418	13273.617
649.546	13268.957
649.674	13257.489
649.802	13161.085
649.930	13308.255
650.058	13157.872
650.187	13140.830
650.315	13084.298
650.443	13176.191
650.571	13063.936
650.699	13054.894
650.827	13014.106
650.955	13054.362
651.083	12982.298
651.212	13047.638
651.340	13003.872
651.468	12920.766
651.596	12847.489
651.724	12883.979
651.852	12843.872
651.980	12803.255
652.108	12851.979
652.237	12789.298
652.365	12847.617
652.493	12738.319
652.621	12756.702
652.749	12747.468
652.877	12688.000
653.005	12649.426
653.133	12658.170
653.262	12666.830
653.390	12583.468
653.518	12667.277
653.646	12518.255
653.774	12681.277
653.902	12513.085
654.030	12483.851
654.158	12457.319
654.287	12452.234
654.415	12440.596
654.543	12435.000
654.671	12386.872
654.799	12367.447
654.927	12319.830
655.055	12278.702
655.183	12280.830
655.312	12265.809
655.440	12275.021
655.568	12251.532
655.696	12247.681
655.824	12317.745
655.952	12221.170
656.080	12102.128
656.208	12224.085
656.337	12076.787
656.465	12094.404
656.593	12006.489
656.721	11960.702
656.849	11997.362
656.977	11947.000
657.105	11862.404
657.233	11806.851
657.362	11777.957
657.490	11795.426
657.618	11755.596
657.746	11768.915
657.874	11665.511
658.002	11721.979
658.130	11660.085
658.258	11602.723
658.387	11649.957
658.515	11572.957
658.643	11595.915
658.771	11593.468
658.899	11551.915
659.027	11536.532
659.155	11499.830
659.283	11634.979
659.412	11440.213
659.540	11550.468
659.668	11407.106
659.796	11399.574
659.924	11429.936
660.052	11377.957
660.180	11337.894
660.308	11294.340
660.437	11286.128
660.565	11209.106
660.693	11211.447
660.821	11204.149
660.949	11204.702
661.077	11141.851
661.205	11120.957
661.333	11115.957
661.462	11243.872
661.590	11112.043
661.718	11322.128
661.846	11070.936
661.974	11232.170
662.102	11058.617
662.230	10993.426
662.358	10921.511
662.487	10979.553
662.615	11017.447
662.743	10918.234
662.871	10927.128
662.999	10955.085
663.127	10826.021
663.255	10944.787
663.383	10980.532
663.512	10842.043
663.640	10915.043
663.768	10866.128
663.896	10897.787
664.024	10908.170
664.152	10847.979
664.280	10907.234
664.408	10875.596
664.537	10938.362
664.665	10782.894
664.793	10729.234
664.921	10790.085
665.049	10797.936
665.177	10743.234
665.305	10776.319
665.433	10733.979
665.562	10664.894
665.690	10668.894
665.818	10871.213
665.946	10693.064
666.074	10673.255
666.202	10610.617
666.330	10683.872
666.458	10650.638
666.587	10600.043
666.715	10588.894
666.843	10567.872
666.971	10551.213
667.099	10585.915
667.227	10551.851
667.355	10546.617
667.483	10504.128
667.612	10520.489
667.740	10551.149
667.868	10600.894
667.996	10538.787
668.124	10476.660
668.252	10463.766
668.380	10480.702
668.508	10462.128
668.637	10434.298
668.765	10404.979
668.893	10479.553
669.021	10354.681
669.149	10383.660
669.277	10460.213
669.405	10330.106
669.533	10356.617
669.662	10568.106
669.790	10367.000
669.918	10377.723
670.046	10249.426
670.174	10350.170
670.302	10309.638
670.430	10274.277
670.558	10270.128
670.687	10140.894
670.815	10307.766
670.943	10111.128
671.071	10109.426
671.199	10122.170
671.327	10057.830
671.455	10056.191
671.583	10001.106
671.712	10163.106
671.840	10016.787
671.968	9884.447
672.096	9882.830
672.224	9895.106
672.352	10032.213
672.480	9840.043
672.608	9752.660
672.737	9747.596
672.865	9811.702
672.993	9695.915
673.121	9636.213
673.249	9613.872
673.377	9569.085
673.505	9502.851
673.633	9492.936
673.762	9454.915
673.890	9410.553
674.018	9665.277
674.146	9427.957
674.274	9403.213
674.402	9514.489
674.530	9322.404
674.658	9289.894
674.787	9256.638
674.915	9229.234
675.043	9254.340
675.171	9193.191
675.299	9167.915
675.427	9156.000
675.555	9063.532
675.683	9055.340
675.812	9038.064
675.940	9071.660
676.068	8972.298
676.196	8954.681
676.324	8925.957
676.452	8921.426
676.580	8867.511
676.708	8859.128
676.837	8872.809
676.965	8778.383
677.093	8725.702
677.221	8740.596
677.349	8752.447
677.477	8764.298
677.605	8676.553
677.733	8705.000
677.862	8522.043
677.990	8523.277
678.118	8548.489
678.246	8526.362
678.374	8559.957
678.502	8418.681
678.630	8415.745
678.758	8370.957
678.887	8356.277
679.015	8413.340
679.143	8360.702
679.271	8283.681
679.399	8339.553
679.527	8276.000
679.655	8234.723
679.783	8261.638
679.912	8295.915
680.040	8223.702
680.168	8228.128
680.296	8153.915
680.424	8147.043
680.552	8152.702
680.680	8225.043
680.808	8103.787
680.937	8093.511
681.065	8026.043
681.193	8080.574
681.321	8114.702
681.449	8075.085
681.577	8083.574
681.705	8045.149
681.833	8020.574
681.962	7948.255
682.090	8141.809
682.218	7943.894
682.346	7971.383
682.474	7943.128
682.602	7950.596
682.730	7950.213
682.858	7872.979
682.987	7977.340
683.115	7925.170
683.243	7851.851
683.371	7807.915
683.499	7858.532
683.627	7878.596
683.755	7827.660
683.883	7924.809
684.012	7787.830
684.140	7792.574
684.268	7733.043
684.396	7764.830
684.524	7761.681
684.652	7806.894
684.780	7734.745
684.908	7725.894
685.037	7659.362
685.165	7593.617
685.293	7638.830
685.421	7692.638
685.549	7557.362
685.677	7546.851
685.805	7727.191
685.933	7582.404
686.062	7520.319
686.190	7495.830
686.318	7557.894
686.446	7505.915
686.574	7484.681
686.702	7569.213
686.830	7451.511
686.958	7428.149
687.087	7446.894
687.215	7442.574
687.343	7362.638
687.471	7338.085
687.599	7342.766
687.727	7502.851
687.855	7349.851
687.983	7373.043
688.112	7443.745
688.240	7278.511
688.368	7226.298
688.496	7311.872
688.624	7311.617
688.752	7237.170
688.880	7236.085
689.008	7201.085
689.137	7156.298
689.265	7100.043
689.393	7103.170
689.521	7109.553
689.649	7086.787
689.777	7072.723
689.905	7013.979
690.033	6991.511
690.162	6997.638
690.290	7000.298
690.418	6952.000
690.546	7029.319
690.674	7022.745
690.802	6877.681
690.930	6913.447
691.058	6884.617
691.187	6846.255
691.315	6827.383
691.443	6906.383
691.571	6794.894
691.699	6834.277
691.827	6838.489
691.955	6756.234
692.083	6729.234
692.212	6864.553
692.340	6703.255
692.468	6677.745
692.596	6698.383
692.724	6793.979
692.852	6619.149
692.980	6733.511
693.108	6577.681
693.237	6522.106
693.365	6527.340
693.493	6499.234
693.621	6478.723
693.749	6441.383
693.877	6432.638
694.005	6555.404
694.133	6437.362
694.262	6431.766
694.390	6387.617
694.518	6361.085
694.646	6311.383
694.774	6324.170
694.902	6411.766
695.030	6387.149
695.158	6230.660
695.287	6272.468
695.415	6243.851
695.543	6182.936
695.671	6331.426
695.799	6203.383
695.927	6170.468
696.055	6135.426
696.183	6159.553
696.312	6145.553
696.440	6284.085
696.568	6147.319
696.696	6152.872
696.824	6037.936
696.952	6047.106
697.080	6048.702
697.208	5983.106
697.337	6081.170
697.465	6013.979
697.593	5955.362
697.721	5959.340
697.849	5947.085
697.977	5944.745
698.105	5976.234
698.233	5884.894
698.362	5866.404
698.490	5871.021
698.618	5896.213
698.746	5959.128
698.874	5852.787
699.002	6064.915
699.130	5820.128
699.258	5804.191
699.387	5758.277
699.515	5804.915
699.643	5735.745
699.771	5784.809
699.899	5743.085
700.027	5725.404
700.155	5636.766
700.283	5683.532
700.412	5683.234
700.540	5651.000
700.668	5643.213
700.796	5579.702
700.924	5610.213
701.052	5584.660
701.180	5665.638
701.308	5575.234
701.437	5456.830
701.565	5468.191
701.693	5412.532
701.821	5448.617
701.949	5484.553
702.077	5442.511
702.205	5362.596
702.333	5377.979
702.462	5352.851
702.590	5313.894
702.718	5304.617
702.846	5253.596
702.974	5264.000
703.102	5236.532
703.230	5324.894
703.358	5246.809
703.487	5147.872
703.615	5319.447
703.743	5138.745
703.871	5115.468
703.999	5133.191
704.127	5222.745
704.255	4988.255
704.383	5188.426
704.512	5009.447
704.640	5023.362
704.768	4903.787
704.896	5015.702
705.024	4897.553
705.152	4990.660
705.280	4896.277
705.408	4824.064
705.537	4840.021
705.665	4806.277
705.793	4765.596
705.921	4737.574
706.049	4750.213
706.177	4684.149
706.305	4720.170
706.433	4783.809
706.562	4696.191
706.690	4628.362
706.818	4596.511
706.946	4798.574
707.074	4623.298
707.202	4547.702
707.330	4615.085
707.458	4542.383
707.587	4494.191
707.715	4521.128
707.843	4519.872
707.971	4531.085
708.099	4554.362
708.227	4468.085
708.355	4433.745
708.483	4420.830
708.612	4387.553
708.740	4425.574
708.868	4447.574
708.996	4411.787
709.124	4411.319
709.252	4324.766
709.380	4316.638
709.508	4340.915
709.637	4276.426
709.765	4288.660
709.893	4321.574
710.021	4286.234
710.149	4218.021
710.277	4265.574
710.405	4191.298
710.533	4177.085
710.662	4202.383
710.790	4153.000
710.918	4195.383
711.046	4158.532
711.174	4121.915
711.302	4153.830
711.430	4225.489
711.558	4066.660
711.687	4067.085
711.815	4107.404
711.943	4061.553
712.071	4092.915
712.199	4089.340
712.327	4045.830
712.455	3982.383
712.583	4011.128
712.712	3994.298
712.840	3992.660
712.968	3977.170
713.096	4006.277
713.224	3926.723
713.352	3959.468
713.480	3945.979
713.608	3917.532
713.737	3920.064
713.865	3912.149
713.993	3969.830
714.121	3872.255
714.249	3886.957
714.377	3959.277
714.505	3886.021
714.633	4002.894
714.762	3904.936
714.890	3817.255
715.018	3875.660
715.146	3877.553
715.274	3898.383
715.402	3968.511
715.530	3847.553
715.658	3782.447
715.787	3803.255
715.915	3946.532
716.043	3762.745
716.171	3821.043
716.299	3839.745
716.427	3756.106
716.555	3732.702
716.683	3726.660
716.812	3697.213
716.940	3753.064
717.068	3651.766
717.196	3836.553
717.324	3764.936
717.452	3673.532
717.580	3646.723
717.708	3641.064
717.837	3694.511
717.965	3587.340
718.093	3592.511
718.221	3578.064
718.349	3576.830
718.477	3604.213
718.605	3599.894
718.733	3552.213
718.862	3531.468
718.990	3534.404
719.118	3538.809
719.246	3481.383
719.374	3570.043
719.502	3497.383
719.630	3597.511
719.758	3421.702
719.887	3435.106
720.015	3607.468
720.143	3397.915
720.271	3417.468
720.399	3408.255
720.527	3469.723
720.655	3465.957
720.783	3442.468
720.912	3352.574
721.040	3340.426
721.168	3321.021
721.296	3395.766
721.424	3312.702
721.552	3234.809
721.680	3268.936
721.808	3301.766
721.937	3249.809
722.065	3351.128
722.193	3359.426
722.321	3199.191
722.449	3180.213
722.577	3183.362
722.705	3148.213
722.833	3192.043
722.962	3216.234
723.090	3099.021
723.218	3064.574
723.346	3088.894
723.474	3079.021
723.602	3191.936
723.730	3139.191
723.858	3224.553
723.987	3099.277
724.115	3131.787
724.243	3059.128
724.371	3070.064
724.499	3109.745
724.627	2958.213
724.755	2976.085
724.883	2985.021
725.012	2983.979
725.140	3022.383
725.268	2959.043
725.396	2860.106
725.524	2918.021
725.652	2948.702
725.780	2878.681
725.908	2963.255
726.037	3095.319
726.165	2841.745
726.293	2843.766
726.421	2814.298
726.549	2809.957
726.677	2814.596
726.805	2809.936
726.933	2743.404
727.062	2824.362
727.190	2794.000
727.318	2717.128
727.446	2763.745
727.574	2752.319
727.702	2884.745
727.830	2702.021
727.958	2765.702
728.087	2692.021
728.215	2816.234
728.343	2792.340
728.471	2662.383
728.599	2671.383
728.727	2777.404
728.855	2623.596
728.983	2639.787
729.112	2632.447
729.240	2572.106
729.368	2650.809
729.496	2633.787
729.624	2630.191
729.752	2571.745
729.880	2626.298
730.008	2572.447
