0pol_90_70_at_750.00nm_cut_at_984.50Y_01.dat
24.04.2023
10:51:24
cut middle at Y: 984.50
top cursor: 1008 down cursor: 961 mean of: 47 lines , 2560 datapoints
wavelength(nm)	intensity[arb. units]
585.996	22711.660
586.124	22276.936
586.252	22234.574
586.380	22332.766
586.508	22502.936
586.637	22680.553
586.765	22776.085
586.893	22844.298
587.021	22926.660
587.149	23063.043
587.277	23110.702
587.405	23256.617
587.533	23197.957
587.662	23409.681
587.790	23416.234
587.918	23492.681
588.046	23566.617
588.174	23620.596
588.302	23766.489
588.430	23719.362
588.558	23761.532
588.687	23968.617
588.815	23914.255
588.943	24010.660
589.071	24013.191
589.199	24094.574
589.327	24211.574
589.455	24158.957
589.583	24389.596
589.712	24390.702
589.840	24438.894
589.968	24505.660
590.096	24592.745
590.224	24739.106
590.352	24694.255
590.480	24891.340
590.608	24848.809
590.737	25046.149
590.865	25088.298
590.993	25093.489
591.121	25233.298
591.249	25257.213
591.377	25294.319
591.505	25416.000
591.633	25540.298
591.762	25530.383
591.890	25775.574
592.018	25746.553
592.146	25829.255
592.274	25927.000
592.402	25976.128
592.530	26067.830
592.658	26370.830
592.787	26227.426
592.915	26487.085
593.043	26454.702
593.171	26549.149
593.299	26732.340
593.427	26799.489
593.555	26979.851
593.683	27047.468
593.812	27135.702
593.940	27183.681
594.068	27410.128
594.196	27611.277
594.324	27592.511
594.452	27776.000
594.580	27861.766
594.708	27926.957
594.837	27974.043
594.965	28188.660
595.093	28380.234
595.221	28287.745
595.349	28633.660
595.477	28662.681
595.605	28712.404
595.733	28696.660
595.862	29015.617
595.990	28963.702
596.118	29082.872
596.246	29333.532
596.374	29257.511
596.502	29440.085
596.630	29410.362
596.758	29549.234
596.887	29568.574
597.015	29688.809
597.143	29783.957
597.271	29900.404
597.399	29912.468
597.527	29926.787
597.655	30049.957
597.783	29986.191
597.912	30067.128
598.040	30210.787
598.168	30188.021
598.296	30336.319
598.424	30228.532
598.552	30333.723
598.680	30369.319
598.808	30483.043
598.937	30467.404
599.065	30404.298
599.193	30568.596
599.321	30624.383
599.449	30679.213
599.577	30746.191
599.705	30782.660
599.833	30850.872
599.962	30964.830
600.090	31037.383
600.218	31138.383
600.346	31134.723
600.474	31262.234
600.602	31379.957
600.730	31452.574
600.858	31576.191
600.987	31712.851
601.115	31743.213
601.243	31882.830
601.371	31940.872
601.499	32115.170
601.627	32290.298
601.755	32369.809
601.883	32445.511
602.012	32709.936
602.140	32723.511
602.268	32944.000
602.396	32982.064
602.524	33283.638
602.652	33314.468
602.780	33483.383
602.908	33628.957
603.037	33789.638
603.165	33820.085
603.293	33944.596
603.421	34128.255
603.549	34205.085
603.677	34406.404
603.805	34534.638
603.933	34686.894
604.062	34813.617
604.190	34940.638
604.318	35036.872
604.446	35234.383
604.574	35302.957
604.702	35466.106
604.830	35645.191
604.958	35721.723
605.087	35841.106
605.215	35929.170
605.343	36045.319
605.471	36113.106
605.599	36233.064
605.727	36279.404
605.855	36427.149
605.983	36474.383
606.112	36612.872
606.240	36678.660
606.368	36643.447
606.496	36904.532
606.624	36858.787
606.752	36941.660
606.880	37113.596
607.008	37252.830
607.137	37247.553
607.265	37046.340
607.393	37156.021
607.521	37328.851
607.649	37277.468
607.777	37226.383
607.905	37326.745
608.033	37287.383
608.162	37363.809
608.290	37371.979
608.418	37337.957
608.546	37373.340
608.674	37430.106
608.802	37428.638
608.930	37436.681
609.058	37398.021
609.187	37523.277
609.315	37549.043
609.443	37538.234
609.571	37503.830
609.699	37477.000
609.827	37615.574
609.955	37523.085
610.083	37562.298
610.212	37505.085
610.340	37569.532
610.468	37677.809
610.596	37576.043
610.724	37671.043
610.852	37515.064
610.980	37587.830
611.108	37637.830
611.237	37584.532
611.365	37718.851
611.493	37725.915
611.621	37820.021
611.749	37872.915
611.877	37917.191
612.005	37889.319
612.133	37987.915
612.262	38020.149
612.390	38046.979
612.518	38205.106
612.646	38323.489
612.774	38157.915
612.902	38361.277
613.030	38355.809
613.158	38515.574
613.287	38548.298
613.415	38558.149
613.543	38477.340
613.671	38553.511
613.799	38749.234
613.927	38564.362
614.055	38612.723
614.183	38859.872
614.312	38771.447
614.440	38828.681
614.568	38813.468
614.696	38918.213
614.824	39220.617
614.952	39066.702
615.080	39140.191
615.208	39181.234
615.337	39104.085
615.465	39155.745
615.593	39367.681
615.721	39400.064
615.849	39490.447
615.977	39529.723
616.105	39534.979
616.233	39494.277
616.362	39565.000
616.490	39531.745
616.618	39632.936
616.746	39715.489
616.874	39622.149
617.002	39600.255
617.130	39598.787
617.258	39829.979
617.387	39786.340
617.515	39736.723
617.643	39774.511
617.771	39740.681
617.899	39793.532
618.027	39720.681
618.155	39766.021
618.283	39753.617
618.412	39690.234
618.540	39791.085
618.668	39659.277
618.796	39690.468
618.924	39758.702
619.052	39598.617
619.180	39646.000
619.308	39602.340
619.437	39709.340
619.565	39495.511
619.693	39576.638
619.821	39429.298
619.949	39356.085
620.077	39438.766
620.205	39515.872
620.333	39465.851
620.462	39477.319
620.590	39334.511
620.718	39294.128
620.846	39312.936
620.974	39277.234
621.102	39143.596
621.230	39122.553
621.358	39258.787
621.487	39105.617
621.615	39006.745
621.743	39038.681
621.871	38914.553
621.999	38866.234
622.127	38800.383
622.255	38747.574
622.383	38686.489
622.512	38526.511
622.640	38778.085
622.768	38498.234
622.896	38479.043
623.024	38310.298
623.152	38416.574
623.280	38233.851
623.408	38101.596
623.537	38124.468
623.665	38073.447
623.793	37936.830
623.921	37852.894
624.049	37857.149
624.177	37657.660
624.305	37726.809
624.433	37613.064
624.562	37630.532
624.690	37472.468
624.818	37529.255
624.946	37521.638
625.074	37339.851
625.202	37170.064
625.330	37130.213
625.458	37080.234
625.587	37039.043
625.715	36919.766
625.843	36954.787
625.971	36818.447
626.099	36721.617
626.227	36703.468
626.355	36509.170
626.483	36534.404
626.612	36370.191
626.740	36406.021
626.868	36447.681
626.996	36268.021
627.124	36199.000
627.252	36159.447
627.380	36099.702
627.508	36059.766
627.637	35950.128
627.765	35866.766
627.893	35897.702
628.021	35907.085
628.149	35991.298
628.277	36102.574
628.405	35971.511
628.533	35542.319
628.662	35593.021
628.790	35493.383
628.918	35452.532
629.046	35379.383
629.174	35501.383
629.302	35684.298
629.430	35443.894
629.558	35156.851
629.687	35127.957
629.815	35046.383
629.943	35094.021
630.071	35043.213
630.199	35054.915
630.327	34929.234
630.455	34954.000
630.583	34905.766
630.712	34786.043
630.840	34834.681
630.968	34670.830
631.096	34581.362
631.224	34566.979
631.352	34363.319
631.480	34363.872
631.608	34396.043
631.737	34306.085
631.865	34388.021
631.993	34153.936
632.121	34134.383
632.249	34107.255
632.377	33924.064
632.505	33828.915
632.633	33597.957
632.762	33653.277
632.890	33577.383
633.018	33371.553
633.146	33480.638
633.274	33229.574
633.402	33158.915
633.530	33013.809
633.658	32912.447
633.787	32750.766
633.915	32770.298
634.043	32530.298
634.171	32498.128
634.299	32323.830
634.427	32252.957
634.555	32176.362
634.683	31958.021
634.812	31885.064
634.940	31662.234
635.068	31657.128
635.196	31485.170
635.324	31287.043
635.452	31251.489
635.580	31125.957
635.708	30977.915
635.837	30804.809
635.965	30643.936
636.093	30480.638
636.221	30466.426
636.349	30315.511
636.477	30166.277
636.605	30085.128
636.733	29831.383
636.862	29714.149
636.990	29574.617
637.118	29444.745
637.246	29341.957
637.374	29232.468
637.502	29125.362
637.630	28900.383
637.758	28836.043
637.887	28649.596
638.015	28556.723
638.143	28423.830
638.271	28310.234
638.399	28248.745
638.527	28044.553
638.655	27989.766
638.783	28032.894
638.912	27838.362
639.040	27564.298
639.168	27582.553
639.296	27414.596
639.424	27389.830
639.552	27185.106
639.680	27270.489
639.808	27091.532
639.937	26883.021
640.065	26865.894
640.193	26759.489
640.321	26629.723
640.449	26606.447
640.577	26544.681
640.705	26402.064
640.833	26447.106
640.962	26215.362
641.090	26142.830
641.218	26060.234
641.346	25970.298
641.474	25960.681
641.602	25799.319
641.730	25796.298
641.858	25732.511
641.987	25708.213
642.115	25493.362
642.243	25438.319
642.371	25429.894
642.499	25313.511
642.627	25325.553
642.755	25204.191
642.883	25210.298
643.012	25134.596
643.140	25010.234
643.268	24887.468
643.396	24828.745
643.524	24861.234
643.652	24746.766
643.780	24513.383
643.908	24596.426
644.037	24489.915
644.165	24359.000
644.293	24249.085
644.421	24215.702
644.549	24169.362
644.677	24020.936
644.805	23987.787
644.933	23827.085
645.062	23742.000
645.190	23615.574
645.318	23644.319
645.446	23449.894
645.574	23455.128
645.702	23389.745
645.830	23423.340
645.958	23102.170
646.087	23187.489
646.215	22902.277
646.343	23012.213
646.471	22819.489
646.599	22705.723
646.727	22622.809
646.855	22474.915
646.983	22440.277
647.112	22316.872
647.240	22347.638
647.368	22127.000
647.496	21980.000
647.624	21852.213
647.752	21816.936
647.880	21696.660
648.008	21618.277
648.137	21436.085
648.265	21347.617
648.393	21267.787
648.521	21237.170
648.649	21080.489
648.777	21012.660
648.905	20874.128
649.033	20781.511
649.162	20658.915
649.290	20591.340
649.418	20374.979
649.546	20408.064
649.674	20287.638
649.802	20099.830
649.930	20161.340
650.058	20039.638
650.187	19876.596
650.315	19789.106
650.443	19745.021
650.571	19561.702
650.699	19578.894
650.827	19464.447
650.955	19356.362
651.083	19248.872
651.212	19217.723
651.340	19117.617
651.468	19010.319
651.596	18867.319
651.724	18788.170
651.852	18755.872
651.980	18584.979
652.108	18609.957
652.237	18483.638
652.365	18435.362
652.493	18333.213
652.621	18183.596
652.749	18143.723
652.877	18036.574
653.005	17981.617
653.133	17945.000
653.262	17873.489
653.390	17739.617
653.518	17720.447
653.646	17600.638
653.774	17649.277
653.902	17466.851
654.030	17339.702
654.158	17302.511
654.287	17219.872
654.415	17135.447
654.543	17125.489
654.671	16985.957
654.799	16954.702
654.927	16846.660
655.055	16750.617
655.183	16699.426
655.312	16583.617
655.440	16563.277
655.568	16432.000
655.696	16430.149
655.824	16454.468
655.952	16248.000
656.080	16171.404
656.208	16207.000
656.337	16015.085
656.465	15953.106
656.593	15865.468
656.721	15721.681
656.849	15727.894
656.977	15655.809
657.105	15551.149
657.233	15501.021
657.362	15452.191
657.490	15271.319
657.618	15281.319
657.746	15189.957
657.874	15127.787
658.002	15049.574
658.130	14987.957
658.258	14875.830
658.387	14872.085
658.515	14749.489
658.643	14716.404
658.771	14581.106
658.899	14571.106
659.027	14488.447
659.155	14464.128
659.283	14523.660
659.412	14298.617
659.540	14326.447
659.668	14162.809
659.796	14111.936
659.924	14095.851
660.052	13973.702
660.180	13921.064
660.308	13799.915
660.437	13785.553
660.565	13711.851
660.693	13666.957
660.821	13578.021
660.949	13555.936
661.077	13490.936
661.205	13431.404
661.333	13389.638
661.462	13374.979
661.590	13291.447
661.718	13382.787
661.846	13175.596
661.974	13261.021
662.102	13058.085
662.230	12980.170
662.358	12908.319
662.487	12930.787
662.615	12786.298
662.743	12800.404
662.871	12754.489
662.999	12665.128
663.127	12585.298
663.255	12719.149
663.383	12622.553
663.512	12530.511
663.640	12556.872
663.768	12475.404
663.896	12422.766
664.024	12438.532
664.152	12328.957
664.280	12325.426
664.408	12305.553
664.537	12276.638
664.665	12218.319
664.793	12107.191
664.921	12045.851
665.049	11977.957
665.177	12005.809
665.305	11965.957
665.433	11900.149
665.562	11843.362
665.690	11840.340
665.818	11918.745
665.946	11811.213
666.074	11655.617
666.202	11666.596
666.330	11682.681
666.458	11608.489
666.587	11552.574
666.715	11533.298
666.843	11522.830
666.971	11482.170
667.099	11438.596
667.227	11403.298
667.355	11326.574
667.483	11299.851
667.612	11278.660
667.740	11247.809
667.868	11245.128
667.996	11213.298
668.124	11106.638
668.252	11123.404
668.380	11065.617
668.508	11029.404
668.637	10983.170
668.765	10934.468
668.893	10921.255
669.021	10826.766
669.149	10828.447
669.277	10832.468
669.405	10719.809
669.533	10680.362
669.662	10906.766
669.790	10667.723
669.918	10639.787
670.046	10538.021
670.174	10586.362
670.302	10555.681
670.430	10467.447
670.558	10441.468
670.687	10262.872
670.815	10452.149
670.943	10256.000
671.071	10198.404
671.199	10212.979
671.327	10125.702
671.455	10108.766
671.583	10041.830
671.712	10123.787
671.840	9995.660
671.968	9867.957
672.096	9800.936
672.224	9779.255
672.352	9904.128
672.480	9728.894
672.608	9617.638
672.737	9577.979
672.865	9688.426
672.993	9533.149
673.121	9456.511
673.249	9390.787
673.377	9404.617
673.505	9300.872
673.633	9280.723
673.762	9189.234
673.890	9147.766
674.018	9388.830
674.146	9065.404
674.274	9036.511
674.402	9174.043
674.530	9004.362
674.658	8948.213
674.787	8870.191
674.915	8791.340
675.043	8845.766
675.171	8757.745
675.299	8683.638
675.427	8674.468
675.555	8551.426
675.683	8573.723
675.812	8560.723
675.940	8508.234
676.068	8466.128
676.196	8349.213
676.324	8377.660
676.452	8284.787
676.580	8249.149
676.708	8255.064
676.837	8241.596
676.965	8141.532
677.093	8083.617
677.221	8030.489
677.349	8091.340
677.477	8039.638
677.605	7929.915
677.733	7978.511
677.862	7836.702
677.990	7777.638
678.118	7790.915
678.246	7789.000
678.374	7751.064
678.502	7631.851
678.630	7607.085
678.758	7620.298
678.887	7574.170
679.015	7535.447
679.143	7509.085
679.271	7458.574
679.399	7520.149
679.527	7429.745
679.655	7372.872
679.783	7376.340
679.912	7394.745
680.040	7329.085
680.168	7299.340
680.296	7312.979
680.424	7250.830
680.552	7212.000
680.680	7288.660
680.808	7162.681
680.937	7135.447
681.065	7063.021
681.193	7105.532
681.321	7097.106
681.449	7081.404
681.577	7032.532
681.705	7001.191
681.833	6958.489
681.962	6877.128
682.090	7072.851
682.218	6877.043
682.346	6859.447
682.474	6861.915
682.602	6792.766
682.730	6827.638
682.858	6750.106
682.987	6777.404
683.115	6769.489
683.243	6687.340
683.371	6655.809
683.499	6676.340
683.627	6698.787
683.755	6656.128
683.883	6752.404
684.012	6564.957
684.140	6524.255
684.268	6457.213
684.396	6503.085
684.524	6518.362
684.652	6571.894
684.780	6492.936
684.908	6487.489
685.037	6396.957
685.165	6351.149
685.293	6329.234
685.421	6409.745
685.549	6280.957
685.677	6269.766
685.805	6397.489
685.933	6267.404
686.062	6203.979
686.190	6143.404
686.318	6213.681
686.446	6114.979
686.574	6146.894
686.702	6212.043
686.830	6091.277
686.958	6062.213
687.087	6042.021
687.215	6026.787
687.343	5954.447
687.471	5963.702
687.599	5942.149
687.727	6114.085
687.855	5904.809
687.983	5935.511
688.112	5986.681
688.240	5842.617
688.368	5828.383
688.496	5823.213
688.624	5858.340
688.752	5715.766
688.880	5748.596
689.008	5723.000
689.137	5686.574
689.265	5634.404
689.393	5622.128
689.521	5557.106
689.649	5569.298
689.777	5545.319
689.905	5547.511
690.033	5510.936
690.162	5474.766
690.290	5496.894
690.418	5393.468
690.546	5547.064
690.674	5474.894
690.802	5311.787
690.930	5417.234
691.058	5369.000
691.187	5301.149
691.315	5271.128
691.443	5331.511
691.571	5230.213
691.699	5256.915
691.827	5278.404
691.955	5207.149
692.083	5173.489
692.212	5291.745
692.340	5149.936
692.468	5112.872
692.596	5100.660
692.724	5225.894
692.852	5027.149
692.980	5108.894
693.108	5003.979
693.237	4969.426
693.365	4966.298
693.493	4900.511
693.621	4909.787
693.749	4897.915
693.877	4854.681
694.005	4936.596
694.133	4823.915
694.262	4818.894
694.390	4731.298
694.518	4762.638
694.646	4747.617
694.774	4765.574
694.902	4819.702
695.030	4763.319
695.158	4629.255
695.287	4628.362
695.415	4635.064
695.543	4581.532
695.671	4715.000
695.799	4620.894
695.927	4579.872
696.055	4535.660
696.183	4540.426
696.312	4495.851
696.440	4630.766
696.568	4585.043
696.696	4505.426
696.824	4384.787
696.952	4443.745
697.080	4471.936
697.208	4355.426
697.337	4448.532
697.465	4408.447
697.593	4306.617
697.721	4344.362
697.849	4347.660
697.977	4291.766
698.105	4334.234
698.233	4247.106
698.362	4269.617
698.490	4251.170
698.618	4207.128
698.746	4317.340
698.874	4209.872
699.002	4380.851
699.130	4176.957
699.258	4171.915
699.387	4073.447
699.515	4138.851
699.643	4094.766
699.771	4114.574
699.899	4076.404
700.027	4070.213
700.155	4020.553
700.283	3981.872
700.412	4032.404
700.540	3995.170
700.668	4000.957
700.796	3932.979
700.924	3911.681
701.052	3908.383
701.180	4006.915
701.308	3879.426
701.437	3806.043
701.565	3790.894
701.693	3782.106
701.821	3774.213
701.949	3804.787
702.077	3801.553
702.205	3711.064
702.333	3723.447
702.462	3689.851
702.590	3669.383
702.718	3640.553
702.846	3638.511
702.974	3625.872
703.102	3629.383
703.230	3670.383
703.358	3598.064
703.487	3547.596
703.615	3703.064
703.743	3501.489
703.871	3498.574
703.999	3502.511
704.127	3595.426
704.255	3382.851
704.383	3568.277
704.512	3400.213
704.640	3428.106
704.768	3326.362
704.896	3401.277
705.024	3299.213
705.152	3433.957
705.280	3293.532
705.408	3267.447
705.537	3244.149
705.665	3197.596
705.793	3204.191
705.921	3158.957
706.049	3203.894
706.177	3131.298
706.305	3139.638
706.433	3226.894
706.562	3114.383
706.690	3056.787
706.818	3055.957
706.946	3289.681
707.074	3071.447
707.202	3005.064
707.330	3055.638
707.458	3012.936
707.587	2940.043
707.715	2971.255
707.843	3013.064
707.971	2982.660
708.099	3001.660
708.227	2923.170
708.355	2909.745
708.483	2855.957
708.612	2843.532
708.740	2883.085
708.868	2960.979
708.996	2829.979
709.124	2888.255
709.252	2814.043
709.380	2763.149
709.508	2814.979
709.637	2741.191
709.765	2758.149
709.893	2779.489
710.021	2784.149
710.149	2707.426
710.277	2769.766
710.405	2671.298
710.533	2665.447
710.662	2643.340
710.790	2638.702
710.918	2658.681
711.046	2646.681
711.174	2601.234
711.302	2630.872
711.430	2720.830
711.558	2586.851
711.687	2576.383
711.815	2603.149
711.943	2563.234
712.071	2586.638
712.199	2609.766
712.327	2598.064
712.455	2502.149
712.583	2573.064
712.712	2540.957
712.840	2522.383
712.968	2534.468
713.096	2569.532
713.224	2517.979
713.352	2534.255
713.480	2509.021
713.608	2494.255
713.737	2526.723
713.865	2502.255
713.993	2547.553
714.121	2509.213
714.249	2525.638
714.377	2535.447
714.505	2516.766
714.633	2539.894
714.762	2493.468
714.890	2485.936
715.018	2518.383
715.146	2514.298
715.274	2486.766
715.402	2494.447
715.530	2471.723
715.658	2442.128
715.787	2464.766
715.915	2469.745
716.043	2447.468
716.171	2449.553
716.299	2468.404
716.427	2435.277
716.555	2428.660
716.683	2389.468
716.812	2395.851
716.940	2420.617
717.068	2357.489
717.196	2359.766
717.324	2393.426
717.452	2358.106
717.580	2328.745
717.708	2357.596
717.837	2359.128
717.965	2335.979
718.093	2295.298
718.221	2269.723
718.349	2299.979
718.477	2252.277
718.605	2261.957
718.733	2276.404
718.862	2265.021
718.990	2241.766
719.118	2263.830
719.246	2227.319
719.374	2246.660
719.502	2222.851
719.630	2279.106
719.758	2210.787
719.887	2167.404
720.015	2196.489
720.143	2155.085
720.271	2149.596
720.399	2180.553
720.527	2131.085
720.655	2129.021
720.783	2129.936
720.912	2098.766
721.040	2130.702
721.168	2079.936
721.296	2117.404
721.424	2063.085
721.552	2055.021
721.680	2045.745
721.808	2069.404
721.937	2042.255
722.065	2034.511
722.193	2014.553
722.321	2029.745
722.449	2022.128
722.577	2005.383
722.705	1988.532
722.833	1964.936
722.962	1984.340
723.090	1956.043
723.218	1970.021
723.346	1966.638
723.474	1937.766
723.602	1971.000
723.730	1933.447
723.858	1936.170
723.987	1911.511
724.115	1867.574
724.243	1891.702
724.371	1877.872
724.499	1892.021
724.627	1850.957
724.755	1844.766
724.883	1861.191
725.012	1857.191
725.140	1824.043
725.268	1803.000
725.396	1809.723
725.524	1800.191
725.652	1797.106
725.780	1787.106
725.908	1768.553
726.037	1755.021
726.165	1757.511
726.293	1706.617
726.421	1726.106
726.549	1709.191
726.677	1719.085
726.805	1699.681
726.933	1697.447
727.062	1678.234
727.190	1704.872
727.318	1686.787
727.446	1682.021
727.574	1678.489
727.702	1667.170
727.830	1639.128
727.958	1681.064
728.087	1661.362
728.215	1637.723
728.343	1623.574
728.471	1620.170
728.599	1620.681
728.727	1607.745
728.855	1613.213
728.983	1605.298
729.112	1581.383
729.240	1585.234
729.368	1586.383
729.496	1583.255
729.624	1569.234
729.752	1573.383
729.880	1571.872
730.008	1562.298
