0pol_70_70_at_750.00nm_cut_at_984.50Y_01.dat
24.04.2023
11:00:29
cut middle at Y: 984.50
top cursor: 1008 down cursor: 961 mean of: 47 lines , 2560 datapoints
wavelength(nm)	intensity[arb. units]
585.996	20541.489
586.124	20152.872
586.252	20033.681
586.380	20167.468
586.508	20256.362
586.637	20350.723
586.765	20550.362
586.893	20569.596
587.021	20650.426
587.149	20790.596
587.277	20768.298
587.405	20884.362
587.533	20853.702
587.662	21079.064
587.790	21017.723
587.918	21054.383
588.046	21097.404
588.174	21012.021
588.302	21279.213
588.430	21149.340
588.558	21219.021
588.687	21271.936
588.815	21327.319
588.943	21339.532
589.071	21375.660
589.199	21489.915
589.327	21518.362
589.455	21394.362
589.583	21649.128
589.712	21641.043
589.840	21639.043
589.968	21711.872
590.096	21784.064
590.224	21795.872
590.352	21858.596
590.480	21828.766
590.608	21932.021
590.737	22040.851
590.865	22016.489
590.993	21984.681
591.121	22120.426
591.249	22220.553
591.377	22228.660
591.505	22226.489
591.633	22370.766
591.762	22341.851
591.890	22549.617
592.018	22476.851
592.146	22561.638
592.274	22656.234
592.402	22637.043
592.530	22647.872
592.658	22939.745
592.787	22869.745
592.915	23065.319
593.043	23051.128
593.171	23076.447
593.299	23080.638
593.427	23188.213
593.555	23346.617
593.683	23406.617
593.812	23498.979
593.940	23530.170
594.068	23600.787
594.196	23763.319
594.324	23846.723
594.452	23832.809
594.580	23936.489
594.708	23981.745
594.837	24015.660
594.965	24175.702
595.093	24327.298
595.221	24258.574
595.349	24467.064
595.477	24518.787
595.605	24552.064
595.733	24517.170
595.862	24802.064
595.990	24691.426
596.118	24742.830
596.246	25015.915
596.374	24909.064
596.502	24965.191
596.630	24985.106
596.758	25144.362
596.887	25031.936
597.015	25123.766
597.143	25174.872
597.271	25205.064
597.399	25249.489
597.527	25210.702
597.655	25339.723
597.783	25226.383
597.912	25222.787
598.040	25322.064
598.168	25410.681
598.296	25403.936
598.424	25394.681
598.552	25368.468
598.680	25400.596
598.808	25552.383
598.937	25489.979
599.065	25447.000
599.193	25525.787
599.321	25510.851
599.449	25538.957
599.577	25546.936
599.705	25604.468
599.833	25595.894
599.962	25606.468
600.090	25673.915
600.218	25819.106
600.346	25890.213
600.474	25913.489
600.602	25889.128
600.730	26011.851
600.858	26020.957
600.987	26168.723
601.115	26150.255
601.243	26264.915
601.371	26226.043
601.499	26358.660
601.627	26505.766
601.755	26525.936
601.883	26638.830
602.012	26755.872
602.140	26777.851
602.268	26914.064
602.396	27010.021
602.524	27149.128
602.652	27125.404
602.780	27265.128
602.908	27386.404
603.037	27428.617
603.165	27481.957
603.293	27606.191
603.421	27697.000
603.549	27754.489
603.677	27907.894
603.805	28007.213
603.933	28057.404
604.062	28269.021
604.190	28245.064
604.318	28347.085
604.446	28363.277
604.574	28456.553
604.702	28616.426
604.830	28671.021
604.958	28732.000
605.087	28807.702
605.215	28895.213
605.343	28894.298
605.471	28988.340
605.599	29060.511
605.727	29042.596
605.855	29108.170
605.983	29165.021
606.112	29211.745
606.240	29194.957
606.368	29239.043
606.496	29514.149
606.624	29282.128
606.752	29334.830
606.880	29471.468
607.008	29602.043
607.137	29476.915
607.265	29408.979
607.393	29467.149
607.521	29529.681
607.649	29494.340
607.777	29438.234
607.905	29465.723
608.033	29420.149
608.162	29400.915
608.290	29485.340
608.418	29325.447
608.546	29472.000
608.674	29365.106
608.802	29480.404
608.930	29329.213
609.058	29388.021
609.187	29418.319
609.315	29413.468
609.443	29408.319
609.571	29352.511
609.699	29331.298
609.827	29399.915
609.955	29317.426
610.083	29294.532
610.212	29283.702
610.340	29224.638
610.468	29341.170
610.596	29281.851
610.724	29310.319
610.852	29264.064
610.980	29297.340
611.108	29353.787
611.237	29193.787
611.365	29291.489
611.493	29273.170
611.621	29373.447
611.749	29302.723
611.877	29308.426
612.005	29315.851
612.133	29452.106
612.262	29513.809
612.390	29468.340
612.518	29501.191
612.646	29550.021
612.774	29514.596
612.902	29603.319
613.030	29706.426
613.158	29790.000
613.287	29641.915
613.415	29720.064
613.543	29627.404
613.671	29681.553
613.799	29764.809
613.927	29558.489
614.055	29667.915
614.183	29827.298
614.312	29791.745
614.440	29922.617
614.568	29752.596
614.696	29888.213
614.824	30004.043
614.952	29938.574
615.080	29918.787
615.208	29972.511
615.337	29981.234
615.465	30024.830
615.593	30134.660
615.721	30306.702
615.849	30303.000
615.977	30334.362
616.105	30336.213
616.233	30261.851
616.362	30295.383
616.490	30305.809
616.618	30413.957
616.746	30440.660
616.874	30395.340
617.002	30338.362
617.130	30407.787
617.258	30480.340
617.387	30524.702
617.515	30443.894
617.643	30488.574
617.771	30412.085
617.899	30415.426
618.027	30351.957
618.155	30463.936
618.283	30339.383
618.412	30379.277
618.540	30337.851
618.668	30230.638
618.796	30327.574
618.924	30439.404
619.052	30301.723
619.180	30290.468
619.308	30304.149
619.437	30287.340
619.565	30220.660
619.693	30196.447
619.821	30059.830
619.949	30075.723
620.077	30211.043
620.205	30098.234
620.333	30120.255
620.462	30072.809
620.590	30038.596
620.718	29947.170
620.846	29954.574
620.974	29859.255
621.102	29829.489
621.230	29734.255
621.358	29939.936
621.487	29777.830
621.615	29678.766
621.743	29745.000
621.871	29623.255
621.999	29676.511
622.127	29552.106
622.255	29571.404
622.383	29445.085
622.512	29454.468
622.640	29509.511
622.768	29337.191
622.896	29301.362
623.024	29270.021
623.152	29293.043
623.280	29240.596
623.408	29128.128
623.537	29110.319
623.665	29050.149
623.793	28981.277
623.921	28935.574
624.049	28851.979
624.177	28854.787
624.305	28739.511
624.433	28735.511
624.562	28794.447
624.690	28669.128
624.818	28680.681
624.946	28789.064
625.074	28585.894
625.202	28479.894
625.330	28404.936
625.458	28376.447
625.587	28354.000
625.715	28297.915
625.843	28360.851
625.971	28320.043
626.099	28181.404
626.227	28199.085
626.355	28062.000
626.483	28134.596
626.612	27971.915
626.740	27944.872
626.868	27980.681
626.996	27885.362
627.124	27905.957
627.252	27845.191
627.380	27879.383
627.508	27851.830
627.637	27720.787
627.765	27702.362
627.893	27783.085
628.021	27778.447
628.149	27933.383
628.277	28007.064
628.405	27945.000
628.533	27579.851
628.662	27654.681
628.790	27570.021
628.918	27503.915
629.046	27547.809
629.174	27606.681
629.302	27792.638
629.430	27616.191
629.558	27485.426
629.687	27353.638
629.815	27371.851
629.943	27413.404
630.071	27355.787
630.199	27380.043
630.327	27306.894
630.455	27352.340
630.583	27290.128
630.712	27161.532
630.840	27275.532
630.968	27223.979
631.096	27144.532
631.224	27105.638
631.352	27077.340
631.480	27009.532
631.608	27050.915
631.737	27078.170
631.865	27051.298
631.993	26886.872
632.121	26996.085
632.249	26862.617
632.377	26726.043
632.505	26754.362
632.633	26561.723
632.762	26554.064
632.890	26576.340
633.018	26397.213
633.146	26543.319
633.274	26268.894
633.402	26245.170
633.530	26158.489
633.658	26218.596
633.787	25951.617
633.915	25922.362
634.043	25900.617
634.171	25832.043
634.299	25734.617
634.427	25707.936
634.555	25605.447
634.683	25470.191
634.812	25372.681
634.940	25276.000
635.068	25236.128
635.196	25173.128
635.324	25020.447
635.452	25042.383
635.580	24933.511
635.708	24787.255
635.837	24721.936
635.965	24568.043
636.093	24502.128
636.221	24420.723
636.349	24434.426
636.477	24268.340
636.605	24297.021
636.733	23997.128
636.862	23984.340
636.990	23897.574
637.118	23831.447
637.246	23703.702
637.374	23605.319
637.502	23610.021
637.630	23422.213
637.758	23392.085
637.887	23283.085
638.015	23237.362
638.143	23126.191
638.271	22964.255
638.399	22960.766
638.527	22923.809
638.655	22813.021
638.783	22913.447
638.912	22690.213
639.040	22656.681
639.168	22580.191
639.296	22507.255
639.424	22554.340
639.552	22343.872
639.680	22459.191
639.808	22295.191
639.937	22216.426
640.065	22131.979
640.193	22122.617
640.321	22050.681
640.449	21972.574
640.577	21980.277
640.705	21856.957
640.833	21864.766
640.962	21729.085
641.090	21716.213
641.218	21677.851
641.346	21623.532
641.474	21637.894
641.602	21559.340
641.730	21532.021
641.858	21476.468
641.987	21428.787
642.115	21394.872
642.243	21407.064
642.371	21325.085
642.499	21229.830
642.627	21327.957
642.755	21275.936
642.883	21242.936
643.012	21149.809
643.140	21049.064
643.268	21046.234
643.396	21057.809
643.524	21081.340
643.652	20964.681
643.780	20885.319
643.908	20852.234
644.037	20878.745
644.165	20761.660
644.293	20667.191
644.421	20632.404
644.549	20611.894
644.677	20580.447
644.805	20530.383
644.933	20366.298
645.062	20363.702
645.190	20300.000
645.318	20320.000
645.446	20134.702
645.574	20068.106
645.702	20034.128
645.830	20140.723
645.958	20014.043
646.087	20061.404
646.215	19804.957
646.343	19937.894
646.471	19723.723
646.599	19729.723
646.727	19558.574
646.855	19491.021
646.983	19550.404
647.112	19354.489
647.240	19437.362
647.368	19246.830
647.496	19218.149
647.624	19087.702
647.752	19029.702
647.880	18977.000
648.008	18885.851
648.137	18810.468
648.265	18743.128
648.393	18716.255
648.521	18667.468
648.649	18545.681
648.777	18469.957
648.905	18353.936
649.033	18307.745
649.162	18178.255
649.290	18184.085
649.418	18051.213
649.546	18012.957
649.674	17946.043
649.802	17798.319
649.930	17973.489
650.058	17773.085
650.187	17684.128
650.315	17594.085
650.443	17535.064
650.571	17459.234
650.699	17417.723
650.827	17359.532
650.955	17271.574
651.083	17172.702
651.212	17203.681
651.340	17096.213
651.468	17020.213
651.596	16871.447
651.724	16870.043
651.852	16856.149
651.980	16726.404
652.108	16745.468
652.237	16635.617
652.365	16678.979
652.493	16547.170
652.621	16438.915
652.749	16462.404
652.877	16314.681
653.005	16295.894
653.133	16198.468
653.262	16164.191
653.390	16164.489
653.518	16116.404
653.646	15992.681
653.774	16101.106
653.902	15837.617
654.030	15794.404
654.158	15739.660
654.287	15696.468
654.415	15553.234
654.543	15614.106
654.671	15523.404
654.799	15508.149
654.927	15436.404
655.055	15397.830
655.183	15293.489
655.312	15257.872
655.440	15259.255
655.568	15147.787
655.696	15136.574
655.824	15177.809
655.952	14990.191
656.080	14924.298
656.208	14955.702
656.337	14816.128
656.465	14767.681
656.593	14758.149
656.721	14585.426
656.849	14605.553
656.977	14466.298
657.105	14403.787
657.233	14334.426
657.362	14286.404
657.490	14194.000
657.618	14227.915
657.746	14095.745
657.874	14018.234
658.002	14032.574
658.130	13919.766
658.258	13845.383
658.387	13858.426
658.515	13760.702
658.643	13706.660
658.771	13675.447
658.899	13656.532
659.027	13553.660
659.155	13554.702
659.283	13653.170
659.412	13376.064
659.540	13455.043
659.668	13301.660
659.796	13284.383
659.924	13199.638
660.052	13157.894
660.180	13094.234
660.308	13066.617
660.437	12986.638
660.565	12920.957
660.693	12867.979
660.821	12841.894
660.949	12751.340
661.077	12720.149
661.205	12667.787
661.333	12608.000
661.462	12676.447
661.590	12560.340
661.718	12689.298
661.846	12518.319
661.974	12575.957
662.102	12359.979
662.230	12429.809
662.358	12281.170
662.487	12287.532
662.615	12261.511
662.743	12215.298
662.871	12192.596
662.999	12162.617
663.127	12037.468
663.255	12158.064
663.383	12055.979
663.512	11940.383
663.640	11972.851
663.768	11921.021
663.896	11909.723
664.024	11879.106
664.152	11792.191
664.280	11887.979
664.408	11784.404
664.537	11815.489
664.665	11726.255
664.793	11595.766
664.921	11612.660
665.049	11602.170
665.177	11577.277
665.305	11504.000
665.433	11508.979
665.562	11485.787
665.690	11400.574
665.818	11544.702
665.946	11328.021
666.074	11262.766
666.202	11256.872
666.330	11270.660
666.458	11206.872
666.587	11165.383
666.715	11127.149
666.843	11136.255
666.971	11060.255
667.099	11086.702
667.227	11010.362
667.355	11005.979
667.483	10947.021
667.612	10932.702
667.740	10913.596
667.868	10931.447
667.996	10856.809
668.124	10778.000
668.252	10731.383
668.380	10748.128
668.508	10704.000
668.637	10698.723
668.765	10629.915
668.893	10597.766
669.021	10555.830
669.149	10538.617
669.277	10571.064
669.405	10457.255
669.533	10425.787
669.662	10637.340
669.790	10398.660
669.918	10355.255
670.046	10283.766
670.174	10315.043
670.302	10235.319
670.430	10195.596
670.558	10214.298
670.687	10098.915
670.815	10225.511
670.943	10032.681
671.071	10020.681
671.199	10016.809
671.327	9919.340
671.455	9872.468
671.583	9875.489
671.712	9932.362
671.840	9809.191
671.968	9710.468
672.096	9616.064
672.224	9616.319
672.352	9725.957
672.480	9520.234
672.608	9423.830
672.737	9446.787
672.865	9522.660
672.993	9337.404
673.121	9238.489
673.249	9255.596
673.377	9246.234
673.505	9147.298
673.633	9108.213
673.762	9052.128
673.890	8994.553
674.018	9228.787
674.146	8963.426
674.274	8904.000
674.402	9055.660
674.530	8818.234
674.658	8799.426
674.787	8762.149
674.915	8664.851
675.043	8705.340
675.171	8595.851
675.299	8541.660
675.427	8561.213
675.555	8434.447
675.683	8413.149
675.812	8370.362
675.940	8375.979
676.068	8314.277
676.196	8217.702
676.324	8266.000
676.452	8191.894
676.580	8120.723
676.708	8102.128
676.837	8102.681
676.965	8013.957
677.093	7955.213
677.221	7912.660
677.349	7911.723
677.477	7944.404
677.605	7810.766
677.733	7839.383
677.862	7716.277
677.990	7684.404
678.118	7623.957
678.246	7626.660
678.374	7681.213
678.502	7526.468
678.630	7494.702
678.758	7476.340
678.887	7456.383
679.015	7429.191
679.143	7397.213
679.271	7365.809
679.399	7375.191
679.527	7294.191
679.655	7223.255
679.783	7239.894
679.912	7281.979
680.040	7226.957
680.168	7167.915
680.296	7155.426
680.424	7067.191
680.552	7108.532
680.680	7131.532
680.808	7032.766
680.937	6975.979
681.065	6965.553
681.193	6957.745
681.321	6964.936
681.449	6875.404
681.577	6944.234
681.705	6900.319
681.833	6815.851
681.962	6766.234
682.090	6942.766
682.218	6743.809
682.346	6731.426
682.474	6733.511
682.602	6664.447
682.730	6702.915
682.858	6633.191
682.987	6645.830
683.115	6597.809
683.243	6544.298
683.371	6540.660
683.499	6554.383
683.627	6530.234
683.755	6540.383
683.883	6593.298
684.012	6426.957
684.140	6380.979
684.268	6399.830
684.396	6354.894
684.524	6412.021
684.652	6400.255
684.780	6358.383
684.908	6321.617
685.037	6261.532
685.165	6220.000
685.293	6176.489
685.421	6286.660
685.549	6114.426
685.677	6120.255
685.805	6267.830
685.933	6133.809
686.062	6009.447
686.190	6024.872
686.318	6059.170
686.446	6029.851
686.574	5947.383
686.702	6039.723
686.830	5922.660
686.958	5901.319
687.087	5886.787
687.215	5889.596
687.343	5831.511
687.471	5824.000
687.599	5768.277
687.727	5928.702
687.855	5753.149
687.983	5794.766
688.112	5866.085
688.240	5669.404
688.368	5625.340
688.496	5657.553
688.624	5676.532
688.752	5528.106
688.880	5587.064
689.008	5549.234
689.137	5537.745
689.265	5456.745
689.393	5466.170
689.521	5396.617
689.649	5407.426
689.777	5407.894
689.905	5357.298
690.033	5361.000
690.162	5294.702
690.290	5281.468
690.418	5285.213
690.546	5378.553
690.674	5319.426
690.802	5187.128
690.930	5203.085
691.058	5207.638
691.187	5142.936
691.315	5081.362
691.443	5155.532
691.571	5077.128
691.699	5077.915
691.827	5080.596
691.955	4999.915
692.083	4978.638
692.212	5091.000
692.340	4944.957
692.468	4963.787
692.596	4942.213
692.724	5014.319
692.852	4859.191
692.980	4937.191
693.108	4830.021
693.237	4793.106
693.365	4758.702
693.493	4745.532
693.621	4684.957
693.749	4687.404
693.877	4637.723
694.005	4759.681
694.133	4633.383
694.262	4631.021
694.390	4550.574
694.518	4573.213
694.646	4555.447
694.774	4566.830
694.902	4644.404
695.030	4551.681
695.158	4460.511
695.287	4437.106
695.415	4402.149
695.543	4430.000
695.671	4484.532
695.799	4421.723
695.927	4397.362
696.055	4325.447
696.183	4332.149
696.312	4311.553
696.440	4451.660
696.568	4360.936
696.696	4324.915
696.824	4204.894
696.952	4216.957
697.080	4243.979
697.208	4149.766
697.337	4208.170
697.465	4161.702
697.593	4097.617
697.721	4123.660
697.849	4100.383
697.977	4094.426
698.105	4105.745
698.233	4032.574
698.362	4007.532
698.490	4004.128
698.618	3987.745
698.746	4087.340
698.874	3997.660
699.002	4164.915
699.130	3933.766
699.258	3933.915
699.387	3846.660
699.515	3871.617
699.643	3861.596
699.771	3906.191
699.899	3812.957
700.027	3874.936
700.155	3780.255
700.283	3770.979
700.412	3807.915
700.540	3752.915
700.668	3774.234
700.796	3673.851
700.924	3694.000
701.052	3687.149
701.180	3762.106
701.308	3655.532
701.437	3571.319
701.565	3578.043
701.693	3511.149
701.821	3568.511
701.949	3525.085
702.077	3545.787
702.205	3479.404
702.333	3493.255
702.462	3451.404
702.590	3435.574
702.718	3408.234
702.846	3402.553
702.974	3368.851
703.102	3373.532
703.230	3427.213
703.358	3372.447
703.487	3292.851
703.615	3480.511
703.743	3278.468
703.871	3228.787
703.999	3298.894
704.127	3333.043
704.255	3160.596
704.383	3332.000
704.512	3143.489
704.640	3161.745
704.768	3097.787
704.896	3169.532
705.024	3069.170
705.152	3174.043
705.280	3081.681
705.408	3019.638
705.537	3018.426
705.665	2960.979
705.793	2959.255
705.921	2923.809
706.049	2930.234
706.177	2905.532
706.305	2909.745
706.433	3001.745
706.562	2881.447
706.690	2826.277
706.818	2794.383
706.946	3042.340
707.074	2823.596
707.202	2756.723
707.330	2864.277
707.458	2749.745
707.587	2709.851
707.715	2713.000
707.843	2775.574
707.971	2730.979
708.099	2751.447
708.227	2669.021
708.355	2659.064
708.483	2618.532
708.612	2598.234
708.740	2660.681
708.868	2704.064
708.996	2628.000
709.124	2646.872
709.252	2603.000
709.380	2553.021
709.508	2591.532
709.637	2541.830
709.765	2527.298
709.893	2574.915
710.021	2583.702
710.149	2509.234
710.277	2556.043
710.405	2516.851
710.533	2519.213
710.662	2501.766
710.790	2535.106
710.918	2535.936
711.046	2534.596
711.174	2514.128
711.302	2477.277
711.430	2530.596
711.558	2490.277
711.687	2481.766
711.815	2485.000
711.943	2466.532
712.071	2495.298
712.199	2465.298
712.327	2456.553
712.455	2428.128
712.583	2444.191
712.712	2441.404
712.840	2434.021
712.968	2409.128
713.096	2396.532
713.224	2397.149
713.352	2400.574
713.480	2357.000
713.608	2380.426
713.737	2338.149
713.865	2358.936
713.993	2346.915
714.121	2330.915
714.249	2348.787
714.377	2324.851
714.505	2344.638
714.633	2303.277
714.762	2277.298
714.890	2286.085
715.018	2303.851
715.146	2286.638
715.274	2261.787
715.402	2237.489
715.530	2249.298
715.658	2238.191
715.787	2228.851
715.915	2237.319
716.043	2195.681
716.171	2226.489
716.299	2216.936
716.427	2201.404
716.555	2226.872
716.683	2166.596
716.812	2167.957
716.940	2167.702
717.068	2136.872
717.196	2123.106
717.324	2150.426
717.452	2137.638
717.580	2109.894
717.708	2095.426
717.837	2135.766
717.965	2086.106
718.093	2055.085
718.221	2030.872
718.349	2056.638
718.477	2045.213
718.605	2035.830
718.733	2031.000
718.862	2017.787
718.990	1990.638
719.118	2029.021
719.246	1988.681
719.374	1995.660
719.502	2020.766
719.630	2045.149
719.758	1954.574
719.887	1933.745
720.015	1944.681
720.143	1914.787
720.271	1907.872
720.399	1951.362
720.527	1914.787
720.655	1901.234
720.783	1883.021
720.912	1854.468
721.040	1926.894
721.168	1861.553
721.296	1886.936
721.424	1847.638
721.552	1839.851
721.680	1808.787
721.808	1844.660
721.937	1824.596
722.065	1799.149
722.193	1776.468
722.321	1809.149
722.449	1784.468
722.577	1769.851
722.705	1754.723
722.833	1759.936
722.962	1775.851
723.090	1719.404
723.218	1717.106
723.346	1720.362
723.474	1723.596
723.602	1761.872
723.730	1726.532
723.858	1724.128
723.987	1704.426
724.115	1648.894
724.243	1664.830
724.371	1647.277
724.499	1675.894
724.627	1629.787
724.755	1645.383
724.883	1643.638
725.012	1596.745
725.140	1607.277
725.268	1587.000
725.396	1607.957
725.524	1575.809
725.652	1578.404
725.780	1552.426
725.908	1558.447
726.037	1560.170
726.165	1540.596
726.293	1503.340
726.421	1524.149
726.549	1527.213
726.677	1509.681
726.805	1488.596
726.933	1517.340
727.062	1474.617
727.190	1483.128
727.318	1469.660
727.446	1465.745
727.574	1461.851
727.702	1474.787
727.830	1447.362
727.958	1476.426
728.087	1476.723
728.215	1450.511
728.343	1432.489
728.471	1423.468
728.599	1425.021
728.727	1416.638
728.855	1405.851
728.983	1409.064
729.112	1401.809
729.240	1391.957
729.368	1373.723
729.496	1377.234
729.624	1371.085
729.752	1368.277
729.880	1389.936
730.008	1378.468
