0pol_70_130_at_750.00nm_cut_at_984.50Y_01.dat
24.04.2023
10:55:36
cut middle at Y: 984.50
top cursor: 1008 down cursor: 961 mean of: 47 lines , 2560 datapoints
wavelength(nm)	intensity[arb. units]
585.996	11782.106
586.124	11488.574
586.252	11458.851
586.380	11474.404
586.508	11512.936
586.637	11560.723
586.765	11653.298
586.893	11670.553
587.021	11702.426
587.149	11800.809
587.277	11709.404
587.405	11788.574
587.533	11758.809
587.662	11927.255
587.790	11913.021
587.918	11779.511
588.046	11830.766
588.174	11738.404
588.302	11882.085
588.430	11828.447
588.558	11783.511
588.687	11868.957
588.815	11786.702
588.943	11822.915
589.071	11850.596
589.199	11841.787
589.327	11854.021
589.455	11778.213
589.583	11912.128
589.712	11956.404
589.840	11851.255
589.968	11839.319
590.096	11862.213
590.224	11878.851
590.352	11930.936
590.480	11877.426
590.608	11910.000
590.737	12031.213
590.865	12008.000
590.993	11881.596
591.121	11936.638
591.249	11985.872
591.377	11949.043
591.505	11973.936
591.633	12021.468
591.762	11973.234
591.890	12112.085
592.018	11968.617
592.146	11988.809
592.274	12017.574
592.402	11998.979
592.530	12055.596
592.658	12323.936
592.787	12095.809
592.915	12303.787
593.043	12159.191
593.171	12179.170
593.299	12265.298
593.427	12266.660
593.555	12275.362
593.683	12289.234
593.812	12359.532
593.940	12346.170
594.068	12421.085
594.196	12473.426
594.324	12512.553
594.452	12494.213
594.580	12590.915
594.708	12565.617
594.837	12536.234
594.965	12729.872
595.093	12726.106
595.221	12743.702
595.349	12863.043
595.477	12808.681
595.605	12797.085
595.733	12768.085
595.862	12994.426
595.990	12879.574
596.118	12903.340
596.246	13022.426
596.374	12964.128
596.502	12945.234
596.630	13013.447
596.758	12957.319
596.887	12950.617
597.015	13015.234
597.143	13019.723
597.271	13022.277
597.399	12978.106
597.527	13016.170
597.655	13038.255
597.783	13037.383
597.912	13010.681
598.040	13028.149
598.168	13103.064
598.296	13029.936
598.424	12970.915
598.552	13096.574
598.680	13013.809
598.808	13113.170
598.937	13056.043
599.065	12989.957
599.193	13012.660
599.321	13084.085
599.449	12953.872
599.577	13013.170
599.705	13058.979
599.833	12982.894
599.962	13032.660
600.090	13049.957
600.218	13065.553
600.346	13157.681
600.474	13097.766
600.602	13070.511
600.730	13166.638
600.858	13165.170
600.987	13310.574
601.115	13201.745
601.243	13266.553
601.371	13263.766
601.499	13356.681
601.627	13382.638
601.755	13394.638
601.883	13480.596
602.012	13470.915
602.140	13476.702
602.268	13670.957
602.396	13570.191
602.524	13665.574
602.652	13636.617
602.780	13712.234
602.908	13769.043
603.037	13852.447
603.165	13814.447
603.293	13880.468
603.421	13888.574
603.549	13943.957
603.677	14048.681
603.805	14036.979
603.933	14110.191
604.062	14226.319
604.190	14221.149
604.318	14232.383
604.446	14358.511
604.574	14385.340
604.702	14446.277
604.830	14459.553
604.958	14432.298
605.087	14563.915
605.215	14581.128
605.343	14566.830
605.471	14617.638
605.599	14690.362
605.727	14688.574
605.855	14734.319
605.983	14709.277
606.112	14807.489
606.240	14719.957
606.368	14718.894
606.496	14965.191
606.624	14816.681
606.752	14897.638
606.880	15011.340
607.008	15056.149
607.137	15022.638
607.265	14816.574
607.393	14893.872
607.521	14993.447
607.649	14883.957
607.777	14906.106
607.905	14995.170
608.033	14898.191
608.162	14933.617
608.290	14939.638
608.418	14879.404
608.546	14978.085
608.674	14890.702
608.802	14899.723
608.930	14857.426
609.058	14949.511
609.187	14984.170
609.315	15034.936
609.443	14934.915
609.571	15014.000
609.699	14918.872
609.827	14948.511
609.955	14945.064
610.083	14950.447
610.212	14891.979
610.340	14878.702
610.468	14967.617
610.596	14982.979
610.724	14976.106
610.852	14926.319
610.980	14989.340
611.108	15033.830
611.237	14958.957
611.365	14950.404
611.493	14978.553
611.621	15004.000
611.749	15068.745
611.877	15076.532
612.005	15061.468
612.133	15116.191
612.262	15119.043
612.390	15125.660
612.518	15222.830
612.646	15284.787
612.774	15252.021
612.902	15254.809
613.030	15350.340
613.158	15487.681
613.287	15444.021
613.415	15398.128
613.543	15391.340
613.671	15366.553
613.799	15462.043
613.927	15364.085
614.055	15467.383
614.183	15559.596
614.312	15439.191
614.440	15607.532
614.568	15599.511
614.696	15624.000
614.824	15827.511
614.952	15662.979
615.080	15719.745
615.208	15794.979
615.337	15853.596
615.465	15853.106
615.593	16001.362
615.721	16202.872
615.849	16218.128
615.977	16197.915
616.105	16205.404
616.233	16091.745
616.362	16189.574
616.490	16207.894
616.618	16256.766
616.746	16262.702
616.874	16317.149
617.002	16270.830
617.130	16340.468
617.258	16505.766
617.387	16385.191
617.515	16392.979
617.643	16410.064
617.771	16455.000
617.899	16491.851
618.027	16411.489
618.155	16545.894
618.283	16395.340
618.412	16475.894
618.540	16517.809
618.668	16491.702
618.796	16575.213
618.924	16641.681
619.052	16523.277
619.180	16512.277
619.308	16531.319
619.437	16596.979
619.565	16529.936
619.693	16480.723
619.821	16492.362
619.949	16461.553
620.077	16561.319
620.205	16585.638
620.333	16551.128
620.462	16649.319
620.590	16591.532
620.718	16560.170
620.846	16598.447
620.974	16599.532
621.102	16528.511
621.230	16550.043
621.358	16724.979
621.487	16505.723
621.615	16539.319
621.743	16552.362
621.871	16572.234
621.999	16642.872
622.127	16518.277
622.255	16589.894
622.383	16525.915
622.512	16497.128
622.640	16676.745
622.768	16447.596
622.896	16485.766
623.024	16532.766
623.152	16548.383
623.280	16511.426
623.408	16446.043
623.537	16447.489
623.665	16411.064
623.793	16455.468
623.921	16402.213
624.049	16438.489
624.177	16381.170
624.305	16415.745
624.433	16445.213
624.562	16431.660
624.690	16440.383
624.818	16503.340
624.946	16583.340
625.074	16485.277
625.202	16408.511
625.330	16376.404
625.458	16494.681
625.587	16413.447
625.715	16457.064
625.843	16505.170
625.971	16454.234
626.099	16420.383
626.227	16441.553
626.355	16385.596
626.483	16557.064
626.612	16444.468
626.740	16460.936
626.868	16550.638
626.996	16451.468
627.124	16461.894
627.252	16435.872
627.380	16516.723
627.508	16486.468
627.637	16490.702
627.765	16497.106
627.893	16583.404
628.021	16604.064
628.149	16822.617
628.277	16928.128
628.405	16915.915
628.533	16683.213
628.662	16653.064
628.790	16657.532
628.918	16693.787
629.046	16721.043
629.174	16816.149
629.302	17084.553
629.430	16886.553
629.558	16827.723
629.687	16811.830
629.815	16816.511
629.943	16884.255
630.071	16910.532
630.199	16889.681
630.327	16955.128
630.455	16952.745
630.583	17074.447
630.712	16963.234
630.840	16982.170
630.968	17039.574
631.096	16987.277
631.224	16993.191
631.352	17034.745
631.480	17009.723
631.608	17081.362
631.737	17121.106
631.865	17178.894
631.993	17061.872
632.121	17202.511
632.249	17124.809
632.377	17061.277
632.505	17130.936
632.633	16892.213
632.762	17067.766
632.890	17071.617
633.018	16913.872
633.146	17102.319
633.274	16934.085
633.402	16922.468
633.530	16911.957
633.658	17023.277
633.787	16834.085
633.915	16945.426
634.043	16838.340
634.171	16879.553
634.299	16810.362
634.427	16830.617
634.555	16749.766
634.683	16712.979
634.812	16711.277
634.940	16695.362
635.068	16611.085
635.196	16589.277
635.324	16596.532
635.452	16618.957
635.580	16460.681
635.708	16455.660
635.837	16472.277
635.965	16433.426
636.093	16428.830
636.221	16383.191
636.349	16398.936
636.477	16278.000
636.605	16439.830
636.733	16176.511
636.862	16199.638
636.990	16169.106
637.118	16222.319
637.246	16180.234
637.374	16115.830
637.502	16063.596
637.630	15986.660
637.758	16010.255
637.887	15961.468
638.015	15947.894
638.143	15917.128
638.271	15862.489
638.399	15850.085
638.527	15890.511
638.655	15834.681
638.783	15853.170
638.912	15831.979
639.040	15729.702
639.168	15748.936
639.296	15767.936
639.424	15831.787
639.552	15690.234
639.680	15799.766
639.808	15698.426
639.937	15643.830
640.065	15569.255
640.193	15706.596
640.321	15608.489
640.449	15623.617
640.577	15624.319
640.705	15599.787
640.833	15654.447
640.962	15558.787
641.090	15558.745
641.218	15500.766
641.346	15509.915
641.474	15574.404
641.602	15525.362
641.730	15544.915
641.858	15590.213
641.987	15532.979
642.115	15522.723
642.243	15543.766
642.371	15489.787
642.499	15559.681
642.627	15571.681
642.755	15640.426
642.883	15600.447
643.012	15544.468
643.140	15458.064
643.268	15508.511
643.396	15509.255
643.524	15654.106
643.652	15522.489
643.780	15426.489
643.908	15506.851
644.037	15564.851
644.165	15446.340
644.293	15436.447
644.421	15484.809
644.549	15490.106
644.677	15393.596
644.805	15432.766
644.933	15307.043
645.062	15375.170
645.190	15379.383
645.318	15406.000
645.446	15319.681
645.574	15346.234
645.702	15256.149
645.830	15484.511
645.958	15208.340
646.087	15427.277
646.215	15184.660
646.343	15345.170
646.471	15202.553
646.599	15165.702
646.727	15082.681
646.855	15089.043
646.983	15060.723
647.112	15031.277
647.240	15186.957
647.368	14976.468
647.496	14989.745
647.624	14906.191
647.752	14842.362
647.880	14852.979
648.008	14809.128
648.137	14776.298
648.265	14751.979
648.393	14706.064
648.521	14719.553
648.649	14695.872
648.777	14642.915
648.905	14534.404
649.033	14540.809
649.162	14521.681
649.290	14482.809
649.418	14483.489
649.546	14432.809
649.674	14383.383
649.802	14280.000
649.930	14461.553
650.058	14262.000
650.187	14153.872
650.315	14127.043
650.443	14192.915
650.571	14152.128
650.699	14095.830
650.827	14050.468
650.955	14013.660
651.083	13990.191
651.212	14006.723
651.340	13960.468
651.468	13872.766
651.596	13846.957
651.724	13832.085
651.852	13791.000
651.980	13693.872
652.108	13820.191
652.237	13701.404
652.365	13762.489
652.493	13595.149
652.621	13579.787
652.749	13657.617
652.877	13498.660
653.005	13530.638
653.133	13494.702
653.262	13524.447
653.390	13451.532
653.518	13496.447
653.646	13380.851
653.774	13560.553
653.902	13350.043
654.030	13316.468
654.158	13235.426
654.287	13233.468
654.415	13201.170
654.543	13235.532
654.671	13146.404
654.799	13127.191
654.927	13046.298
655.055	13047.553
655.183	13024.979
655.312	13043.979
655.440	13003.149
655.568	12872.532
655.696	12968.489
655.824	13006.681
655.952	12830.362
656.080	12801.128
656.208	12858.723
656.337	12761.723
656.465	12709.702
656.593	12694.915
656.721	12605.000
656.849	12612.979
656.977	12555.489
657.105	12490.638
657.233	12452.064
657.362	12402.234
657.490	12335.745
657.618	12369.660
657.746	12323.872
657.874	12290.191
658.002	12247.298
658.130	12212.681
658.258	12154.617
658.387	12137.064
658.515	12078.532
658.643	12104.702
658.771	12069.851
658.899	12023.021
659.027	11976.468
659.155	11973.723
659.283	12076.000
659.412	11830.915
659.540	11922.362
659.668	11802.128
659.796	11800.447
659.924	11837.277
660.052	11768.851
660.180	11714.128
660.308	11648.723
660.437	11606.383
660.565	11602.277
660.693	11569.426
660.821	11497.574
660.949	11488.234
661.077	11435.979
661.205	11418.787
661.333	11408.426
661.462	11495.532
661.590	11399.362
661.718	11494.702
661.846	11337.170
661.974	11445.000
662.102	11273.489
662.230	11229.787
662.358	11162.660
662.487	11206.872
662.615	11195.255
662.743	11076.574
662.871	11160.064
662.999	11099.745
663.127	11020.574
663.255	11185.894
663.383	11099.234
663.512	11033.489
663.640	11082.872
663.768	10970.170
663.896	11056.149
664.024	11031.298
664.152	10974.979
664.280	11036.574
664.408	10942.617
664.537	10978.638
664.665	10893.872
664.793	10824.894
664.921	10831.915
665.049	10831.383
665.177	10795.936
665.305	10813.553
665.433	10751.617
665.562	10766.872
665.690	10760.298
665.818	10871.723
665.946	10704.383
666.074	10655.894
666.202	10654.596
666.330	10670.915
666.458	10639.915
666.587	10596.340
666.715	10616.489
666.843	10546.468
666.971	10494.277
667.099	10544.660
667.227	10514.957
667.355	10468.681
667.483	10423.532
667.612	10472.787
667.740	10428.532
667.868	10495.660
667.996	10451.404
668.124	10364.511
668.252	10369.362
668.380	10348.340
668.508	10336.787
668.637	10320.191
668.765	10288.468
668.893	10275.766
669.021	10162.702
669.149	10247.638
669.277	10257.511
669.405	10126.979
669.533	10175.532
669.662	10361.191
669.790	10145.681
669.918	10127.021
670.046	10013.489
670.174	10127.255
670.302	10088.851
670.430	9998.638
670.558	10063.894
670.687	9901.830
670.815	10051.213
670.943	9887.213
671.071	9831.660
671.199	9856.957
671.327	9802.085
671.455	9735.447
671.583	9714.894
671.712	9826.553
671.840	9687.255
671.968	9617.745
672.096	9565.532
672.224	9520.766
672.352	9700.915
672.480	9539.894
672.608	9424.340
672.737	9396.362
672.865	9510.702
672.993	9336.979
673.121	9258.426
673.249	9219.766
673.377	9235.638
673.505	9168.681
673.633	9150.660
673.762	9069.915
673.890	9075.128
674.018	9262.426
674.146	9019.660
674.274	8999.085
674.402	9141.574
674.530	8970.787
674.658	8853.894
674.787	8834.043
674.915	8779.702
675.043	8900.298
675.171	8788.723
675.299	8668.596
675.427	8654.872
675.555	8642.383
675.683	8619.681
675.812	8596.532
675.940	8615.894
676.068	8545.426
676.196	8465.915
676.324	8523.936
676.452	8483.617
676.580	8386.574
676.708	8389.106
676.837	8385.830
676.965	8330.745
677.093	8245.511
677.221	8200.064
677.349	8215.915
677.477	8240.830
677.605	8161.340
677.733	8190.340
677.862	8035.681
677.990	8000.468
678.118	7991.638
678.246	7968.511
678.374	7963.340
678.502	7893.170
678.630	7878.745
678.758	7917.489
678.887	7791.574
679.015	7804.596
679.143	7722.532
679.271	7732.106
679.399	7787.000
679.527	7722.000
679.655	7636.426
679.783	7689.064
679.912	7724.149
680.040	7651.979
680.168	7617.936
680.296	7605.021
680.424	7551.340
680.552	7534.872
680.680	7641.043
680.808	7466.043
680.937	7465.021
681.065	7424.532
681.193	7478.830
681.321	7475.511
681.449	7391.213
681.577	7440.170
681.705	7385.830
681.833	7349.021
681.962	7318.362
682.090	7489.787
682.218	7258.298
682.346	7283.191
682.474	7268.617
682.602	7219.064
682.730	7253.830
682.858	7170.830
682.987	7228.000
683.115	7186.723
683.243	7117.851
683.371	7104.787
683.499	7153.532
683.627	7159.277
683.755	7121.830
683.883	7243.426
684.012	7050.128
684.140	7017.085
684.268	7017.809
684.396	6995.957
684.524	7040.574
684.652	7065.766
684.780	6992.234
684.908	6971.255
685.037	6912.830
685.165	6877.064
685.293	6846.021
685.421	6924.638
685.549	6820.681
685.677	6803.277
685.805	6961.468
685.933	6797.872
686.062	6740.702
686.190	6785.043
686.318	6780.043
686.446	6722.234
686.574	6696.553
686.702	6763.894
686.830	6666.766
686.958	6597.468
687.087	6608.085
687.215	6604.681
687.343	6593.766
687.471	6562.851
687.599	6528.745
687.727	6693.702
687.855	6519.681
687.983	6524.255
688.112	6593.170
688.240	6465.489
688.368	6447.787
688.496	6435.957
688.624	6488.957
688.752	6371.255
688.880	6366.617
689.008	6343.723
689.137	6334.149
689.265	6230.979
689.393	6209.043
689.521	6247.872
689.649	6234.766
689.777	6185.596
689.905	6168.660
690.033	6161.021
690.162	6139.234
690.290	6124.489
690.418	6081.596
690.546	6192.745
690.674	6139.191
690.802	6028.511
690.930	6096.426
691.058	6022.723
691.187	5977.915
691.315	5950.596
691.443	6018.213
691.571	5934.957
691.699	5930.213
691.827	5937.936
691.955	5870.489
692.083	5865.277
692.212	5938.957
692.340	5830.021
692.468	5808.064
692.596	5787.553
692.724	5880.234
692.852	5729.787
692.980	5762.447
693.108	5733.149
693.237	5661.830
693.365	5637.511
693.493	5626.064
693.621	5608.277
693.749	5578.319
693.877	5517.809
694.005	5620.043
694.133	5524.745
694.262	5537.787
694.390	5456.511
694.518	5456.489
694.646	5453.809
694.774	5419.511
694.902	5515.085
695.030	5431.766
695.158	5333.936
695.287	5354.830
695.415	5377.064
695.543	5318.511
695.671	5427.894
695.799	5286.000
695.927	5310.745
696.055	5255.468
696.183	5282.085
696.312	5214.404
696.440	5372.660
696.568	5281.277
696.696	5231.064
696.824	5143.745
696.952	5143.234
697.080	5143.915
697.208	5076.319
697.337	5187.638
697.465	5107.702
697.593	5071.957
697.721	5077.362
697.849	5055.426
697.977	5026.468
698.105	5033.957
698.233	4953.298
698.362	4962.532
698.490	4931.894
698.618	4949.532
698.746	5002.894
698.874	4910.362
699.002	5108.596
699.130	4909.979
699.258	4881.638
699.387	4828.617
699.515	4859.277
699.643	4794.702
699.771	4838.383
699.899	4785.383
700.027	4805.915
700.155	4748.574
700.283	4716.234
700.412	4767.851
700.540	4712.809
700.668	4720.830
700.796	4650.553
700.924	4648.936
701.052	4636.404
701.180	4708.191
701.308	4604.021
701.437	4512.532
701.565	4510.723
701.693	4487.638
701.821	4533.915
701.949	4530.298
702.077	4512.532
702.205	4411.957
702.333	4446.340
702.462	4389.617
702.590	4389.638
702.718	4371.170
702.846	4339.553
702.974	4318.000
703.102	4313.106
703.230	4385.787
703.358	4310.489
703.487	4221.809
703.615	4386.234
703.743	4238.362
703.871	4185.681
703.999	4208.234
704.127	4299.128
704.255	4099.681
704.383	4278.277
704.512	4135.766
704.640	4094.553
704.768	4017.872
704.896	4147.064
705.024	3989.340
705.152	4096.872
705.280	3996.872
705.408	3983.936
705.537	3947.021
705.665	3905.809
705.793	3881.766
705.921	3840.553
706.049	3862.809
706.177	3808.468
706.305	3808.617
706.433	3899.745
706.562	3816.106
706.690	3748.319
706.818	3731.340
706.946	3922.191
707.074	3734.383
707.202	3664.213
707.330	3744.085
707.458	3670.064
707.587	3633.064
707.715	3626.574
707.843	3650.106
707.971	3657.723
708.099	3663.277
708.227	3559.936
708.355	3543.532
708.483	3500.894
708.612	3517.340
708.740	3534.723
708.868	3592.362
708.996	3535.894
709.124	3523.745
709.252	3477.085
709.380	3412.617
709.508	3464.894
709.637	3422.404
709.765	3421.872
709.893	3411.957
710.021	3410.830
710.149	3354.830
710.277	3413.894
710.405	3303.298
710.533	3350.085
710.662	3296.170
710.790	3277.660
710.918	3334.404
711.046	3298.787
711.174	3240.574
711.302	3251.149
711.430	3352.213
711.558	3201.383
711.687	3200.745
711.815	3213.809
711.943	3183.340
712.071	3219.851
712.199	3246.745
712.327	3194.660
712.455	3128.106
712.583	3168.426
712.712	3130.128
712.840	3139.085
712.968	3111.362
713.096	3146.723
713.224	3065.362
713.352	3097.660
713.480	3063.362
713.608	3061.957
713.737	3071.851
713.865	3073.787
713.993	3106.872
714.121	3021.191
714.249	3061.128
714.377	3133.404
714.505	3042.553
714.633	3177.872
714.762	3054.702
714.890	2961.660
715.018	3011.596
715.146	2985.298
715.274	3034.362
715.402	3129.553
715.530	3050.872
715.658	2924.000
715.787	2913.957
715.915	3144.723
716.043	2900.681
716.171	2973.511
716.299	2996.191
716.427	2910.894
716.555	2882.128
716.683	2865.553
716.812	2848.681
716.940	2884.298
717.068	2809.830
717.196	3002.468
717.324	2934.723
717.452	2823.532
717.580	2790.723
717.708	2799.170
717.837	2879.000
717.965	2711.681
718.093	2780.064
718.221	2703.362
718.349	2766.596
718.477	2756.255
718.605	2774.830
718.733	2711.043
718.862	2716.936
718.990	2678.000
719.118	2667.894
719.246	2672.702
719.374	2749.745
719.502	2686.043
719.630	2831.511
719.758	2625.830
719.887	2603.319
720.015	2821.255
720.143	2587.660
720.271	2617.191
720.399	2617.362
720.527	2630.979
720.655	2647.255
720.783	2668.277
720.912	2595.447
721.040	2580.383
721.168	2558.255
721.296	2624.447
721.424	2554.702
721.552	2532.745
721.680	2512.426
721.808	2563.723
721.937	2558.979
722.065	2596.362
722.193	2591.170
722.321	2525.319
722.449	2517.574
722.577	2508.617
722.705	2503.936
722.833	2517.277
722.962	2518.106
723.090	2479.340
723.218	2449.872
723.346	2474.915
723.474	2449.106
723.602	2533.106
723.730	2482.957
723.858	2521.383
723.987	2471.213
724.115	2425.255
724.243	2431.489
724.371	2431.702
724.499	2441.894
724.627	2405.447
724.755	2419.064
724.883	2413.489
725.012	2372.957
725.140	2365.149
725.268	2354.298
725.396	2365.851
725.524	2342.170
725.652	2355.468
725.780	2332.234
725.908	2330.617
726.037	2320.149
726.165	2298.979
726.293	2267.000
726.421	2282.936
726.549	2286.064
726.677	2262.660
726.805	2262.128
726.933	2267.404
727.062	2202.894
727.190	2215.404
727.318	2217.660
727.446	2212.532
727.574	2207.362
727.702	2206.404
727.830	2192.617
727.958	2205.830
728.087	2200.915
728.215	2189.468
728.343	2138.277
728.471	2153.723
728.599	2148.617
728.727	2151.340
728.855	2142.043
728.983	2132.936
729.112	2121.255
729.240	2106.723
729.368	2100.766
729.496	2112.957
729.624	2083.128
729.752	2096.106
729.880	2090.872
730.008	2101.000
730.137	2101.149
