0pol_70_130_at_750.00nm_cut_at_984.50Y_02.dat
24.04.2023
10:55:40
cut middle at Y: 984.50
top cursor: 1008 down cursor: 961 mean of: 47 lines , 2560 datapoints
wavelength(nm)	intensity[arb. units]
585.996	11655.511
586.124	11393.213
586.252	11282.957
586.380	11317.000
586.508	11408.426
586.637	11462.809
586.765	11508.128
586.893	11562.383
587.021	11575.085
587.149	11612.809
587.277	11600.043
587.405	11666.277
587.533	11573.660
587.662	11800.660
587.790	11763.106
587.918	11648.000
588.046	11721.723
588.174	11658.064
588.302	11739.638
588.430	11671.234
588.558	11649.106
588.687	11731.064
588.815	11704.213
588.943	11607.851
589.071	11687.553
589.199	11711.170
589.327	11716.085
589.455	11654.532
589.583	11767.106
589.712	11772.872
589.840	11717.915
589.968	11719.128
590.096	11704.723
590.224	11752.277
590.352	11748.298
590.480	11749.702
590.608	11751.191
590.737	11786.830
590.865	11801.872
590.993	11718.830
591.121	11800.149
591.249	11834.979
591.377	11780.426
591.505	11775.532
591.633	11829.255
591.762	11753.085
591.890	11962.681
592.018	11814.447
592.146	11812.298
592.274	11860.064
592.402	11864.745
592.530	11799.064
592.658	12094.340
592.787	11929.957
592.915	12094.170
593.043	11950.426
593.171	12034.830
593.299	12057.702
593.427	12055.894
593.555	12088.489
593.683	12106.128
593.812	12136.128
593.940	12152.660
594.068	12157.745
594.196	12300.191
594.324	12238.149
594.452	12272.596
594.580	12302.064
594.708	12280.213
594.837	12299.830
594.965	12367.447
595.093	12432.234
595.221	12456.574
595.349	12583.979
595.477	12492.340
595.605	12504.064
595.733	12503.681
595.862	12753.468
595.990	12679.447
596.118	12623.149
596.246	12781.298
596.374	12693.787
596.502	12684.426
596.630	12707.830
596.758	12677.936
596.887	12645.213
597.015	12741.277
597.143	12721.787
597.271	12783.532
597.399	12726.809
597.527	12725.298
597.655	12765.362
597.783	12724.426
597.912	12697.426
598.040	12733.191
598.168	12763.596
598.296	12714.064
598.424	12694.702
598.552	12734.532
598.680	12672.809
598.808	12829.362
598.937	12664.638
599.065	12643.872
599.193	12724.553
599.321	12801.723
599.449	12694.426
599.577	12644.915
599.705	12717.830
599.833	12619.277
599.962	12686.128
600.090	12753.447
600.218	12756.340
600.346	12770.681
600.474	12690.553
600.602	12727.340
600.730	12778.064
600.858	12827.106
600.987	12995.277
601.115	12852.894
601.243	12895.255
601.371	12941.851
601.499	12922.596
601.627	13004.468
601.755	13043.596
601.883	13093.532
602.012	13104.681
602.140	13095.851
602.268	13247.255
602.396	13231.191
602.524	13309.362
602.652	13216.319
602.780	13321.702
602.908	13376.787
603.037	13404.979
603.165	13389.447
603.293	13470.574
603.421	13461.681
603.549	13558.723
603.677	13652.064
603.805	13622.702
603.933	13662.021
604.062	13787.170
604.190	13774.106
604.318	13762.191
604.446	13779.787
604.574	13843.064
604.702	13889.830
604.830	13972.149
604.958	13957.574
605.087	14043.936
605.215	14047.979
605.343	14052.702
605.471	14029.532
605.599	14112.915
605.727	14117.128
605.855	14186.745
605.983	14184.383
606.112	14191.553
606.240	14215.362
606.368	14213.660
606.496	14370.681
606.624	14214.936
606.752	14281.064
606.880	14397.787
607.008	14425.957
607.137	14393.298
607.265	14217.532
607.393	14297.830
607.521	14376.851
607.649	14288.489
607.777	14260.830
607.905	14284.468
608.033	14248.064
608.162	14310.660
608.290	14316.702
608.418	14213.340
608.546	14263.787
608.674	14283.255
608.802	14217.766
608.930	14224.723
609.058	14231.149
609.187	14350.553
609.315	14319.787
609.443	14298.000
609.571	14333.766
609.699	14304.319
609.827	14274.638
609.955	14288.085
610.083	14255.787
610.212	14248.170
610.340	14241.511
610.468	14273.064
610.596	14276.149
610.724	14313.596
610.852	14293.426
610.980	14293.809
611.108	14354.766
611.237	14196.617
611.365	14306.234
611.493	14250.723
611.621	14316.021
611.749	14321.553
611.877	14350.638
612.005	14305.340
612.133	14404.447
612.262	14440.979
612.390	14405.404
612.518	14453.234
612.646	14497.213
612.774	14462.915
612.902	14439.021
613.030	14594.021
613.158	14686.872
613.287	14603.596
613.415	14573.511
613.543	14542.426
613.671	14536.277
613.799	14636.830
613.927	14545.787
614.055	14539.851
614.183	14736.745
614.312	14598.596
614.440	14778.617
614.568	14654.979
614.696	14720.596
614.824	14880.149
614.952	14764.894
615.080	14765.766
615.208	14855.426
615.337	14888.617
615.465	14954.234
615.593	15070.319
615.721	15166.447
615.849	15225.021
615.977	15262.830
616.105	15307.617
616.233	15167.298
616.362	15221.596
616.490	15212.447
616.618	15246.681
616.746	15360.638
616.874	15416.319
617.002	15313.681
617.130	15285.085
617.258	15499.894
617.387	15395.936
617.515	15373.234
617.643	15377.638
617.771	15458.787
617.899	15406.596
618.027	15431.489
618.155	15508.021
618.283	15410.681
618.412	15408.830
618.540	15518.000
618.668	15433.660
618.796	15442.702
618.924	15562.872
619.052	15453.340
619.180	15433.787
619.308	15474.106
619.437	15456.532
619.565	15436.936
619.693	15395.787
619.821	15398.277
619.949	15418.553
620.077	15488.957
620.205	15500.745
620.333	15461.468
620.462	15452.340
620.590	15518.106
620.718	15427.617
620.846	15468.340
620.974	15504.809
621.102	15406.809
621.230	15434.340
621.358	15531.362
621.487	15383.830
621.615	15354.851
621.743	15423.085
621.871	15412.426
621.999	15453.936
622.127	15364.447
622.255	15354.404
622.383	15292.340
622.512	15272.340
622.640	15479.000
622.768	15245.936
622.896	15313.574
623.024	15235.574
623.152	15358.170
623.280	15356.574
623.408	15190.170
623.537	15286.170
623.665	15193.043
623.793	15242.723
623.921	15195.447
624.049	15113.021
624.177	15114.085
624.305	15163.553
624.433	15231.979
624.562	15255.638
624.690	15179.447
624.818	15213.468
624.946	15327.574
625.074	15196.064
625.202	15115.745
625.330	15136.085
625.458	15175.851
625.587	15116.426
625.715	15174.404
625.843	15234.681
625.971	15193.617
626.099	15154.298
626.227	15132.681
626.355	15066.213
626.483	15250.106
626.612	15121.000
626.740	15147.426
626.868	15222.617
626.996	15125.809
627.124	15151.766
627.252	15108.489
627.380	15164.532
627.508	15205.851
627.637	15130.660
627.765	15184.872
627.893	15265.383
628.021	15243.255
628.149	15432.702
628.277	15596.447
628.405	15492.149
628.533	15311.723
628.662	15337.447
628.790	15304.553
628.918	15317.319
629.046	15274.383
629.174	15431.787
629.302	15679.787
629.430	15476.851
629.558	15348.085
629.687	15384.681
629.815	15344.149
629.943	15396.362
630.071	15439.064
630.199	15523.000
630.327	15480.660
630.455	15458.426
630.583	15560.170
630.712	15533.851
630.840	15509.447
630.968	15592.234
631.096	15486.043
631.224	15520.319
631.352	15533.851
631.480	15519.383
631.608	15553.936
631.737	15675.000
631.865	15699.681
631.993	15521.702
632.121	15652.064
632.249	15651.894
632.377	15566.745
632.505	15564.277
632.633	15391.021
632.762	15488.213
632.890	15580.149
633.018	15379.340
633.146	15534.277
633.274	15414.830
633.402	15383.596
633.530	15355.362
633.658	15507.064
633.787	15267.298
633.915	15343.532
634.043	15281.936
634.171	15280.106
634.299	15276.106
634.427	15308.149
634.555	15253.383
634.683	15146.149
634.812	15165.255
634.940	15101.043
635.068	15056.745
635.196	15080.106
635.324	14967.447
635.452	14995.511
635.580	14952.064
635.708	14934.383
635.837	14878.362
635.965	14823.404
636.093	14805.000
636.221	14752.234
636.349	14863.340
636.477	14731.957
636.605	14850.447
636.733	14587.638
636.862	14600.936
636.990	14593.064
637.118	14530.702
637.246	14550.404
637.374	14417.596
637.502	14470.149
637.630	14420.702
637.758	14402.362
637.887	14361.106
638.015	14340.085
638.143	14348.170
638.271	14256.553
638.399	14245.404
638.527	14242.915
638.655	14202.511
638.783	14315.468
638.912	14208.362
639.040	14231.915
639.168	14177.021
639.296	14077.021
639.424	14206.362
639.552	14075.426
639.680	14241.766
639.808	14073.170
639.937	14056.766
640.065	14009.362
640.193	14090.660
640.321	13999.404
640.449	14059.447
640.577	14105.723
640.705	13963.468
640.833	14056.383
640.962	13956.362
641.090	13981.553
641.218	13922.468
641.346	13959.532
641.474	13932.255
641.602	13927.787
641.730	13926.213
641.858	13966.383
641.987	13933.596
642.115	13899.234
642.243	13994.553
642.371	13914.085
642.499	13897.702
642.627	13969.638
642.755	13970.830
642.883	13954.213
643.012	13960.511
643.140	13862.511
643.268	13866.915
643.396	13881.170
643.524	14004.340
643.652	13898.851
643.780	13835.043
643.908	13889.915
644.037	13888.681
644.165	13807.170
644.293	13823.255
644.421	13834.638
644.549	13881.894
644.677	13737.915
644.805	13808.383
644.933	13671.085
645.062	13700.021
645.190	13674.362
645.318	13797.532
645.446	13641.255
645.574	13690.447
645.702	13608.468
645.830	13813.957
645.958	13582.277
646.087	13762.809
646.215	13508.362
646.343	13674.660
646.471	13540.766
646.599	13597.000
646.727	13481.447
646.855	13446.319
646.983	13429.936
647.112	13397.277
647.240	13523.553
647.368	13334.617
647.496	13340.404
647.624	13243.383
647.752	13219.277
647.880	13216.043
648.008	13228.489
648.137	13117.404
648.265	13117.000
648.393	13142.128
648.521	13101.468
648.649	13077.489
648.777	13024.426
648.905	12931.745
649.033	12948.362
649.162	12828.149
649.290	12923.596
649.418	12847.702
649.546	12833.957
649.674	12806.596
649.802	12721.915
649.930	12824.489
650.058	12654.319
650.187	12643.234
650.315	12583.383
650.443	12650.149
650.571	12580.574
650.699	12568.957
650.827	12447.830
650.955	12498.532
651.083	12456.851
651.212	12463.000
651.340	12442.872
651.468	12386.128
651.596	12312.936
651.724	12271.319
651.852	12259.234
651.980	12215.638
652.108	12285.830
652.237	12177.894
652.365	12245.213
652.493	12120.000
652.621	12088.170
652.749	12124.511
652.877	12060.170
653.005	12066.447
653.133	11994.532
653.262	12019.404
653.390	11950.234
653.518	12067.723
653.646	11932.106
653.774	12037.511
653.902	11867.574
654.030	11797.957
654.158	11801.489
654.287	11760.766
654.415	11743.128
654.543	11770.085
654.671	11699.298
654.799	11655.170
654.927	11610.191
655.055	11615.362
655.183	11619.149
655.312	11562.106
655.440	11577.468
655.568	11509.085
655.696	11524.149
655.824	11575.830
655.952	11421.872
656.080	11378.851
656.208	11488.745
656.337	11324.638
656.465	11341.426
656.593	11274.383
656.721	11168.596
656.849	11219.064
656.977	11131.383
657.105	11129.043
657.233	11050.298
657.362	11047.660
657.490	10985.404
657.618	11011.574
657.746	10971.277
657.874	10903.170
658.002	10884.447
658.130	10849.574
658.258	10774.596
658.387	10850.043
658.515	10751.000
658.643	10731.255
658.771	10735.298
658.899	10766.319
659.027	10669.319
659.155	10671.043
659.283	10808.255
659.412	10571.468
659.540	10650.255
659.668	10496.234
659.796	10509.149
659.924	10498.426
660.052	10459.043
660.180	10394.957
660.308	10407.447
660.437	10376.383
660.565	10349.809
660.693	10327.638
660.821	10272.511
660.949	10233.702
661.077	10235.404
661.205	10230.915
661.333	10173.766
661.462	10282.489
661.590	10169.766
661.718	10319.851
661.846	10138.574
661.974	10242.489
662.102	10050.191
662.230	10089.277
662.358	9951.851
662.487	10014.170
662.615	9953.426
662.743	9985.894
662.871	9943.170
662.999	9911.723
663.127	9923.447
663.255	9976.894
663.383	9972.894
663.512	9869.617
663.640	9905.830
663.768	9832.894
663.896	9872.553
664.024	9910.617
664.152	9850.447
664.280	9839.596
664.408	9843.936
664.537	9814.149
664.665	9812.064
664.793	9688.319
664.921	9710.489
665.049	9708.574
665.177	9705.702
665.305	9697.532
665.433	9687.574
665.562	9613.234
665.690	9674.191
665.818	9770.426
665.946	9610.872
666.074	9591.915
666.202	9556.298
666.330	9581.532
666.458	9572.809
666.587	9490.234
666.715	9504.383
666.843	9528.617
666.971	9449.532
667.099	9494.638
667.227	9439.872
667.355	9452.723
667.483	9458.404
667.612	9424.000
667.740	9417.532
667.868	9441.021
667.996	9419.106
668.124	9351.787
668.252	9348.000
668.380	9285.745
668.508	9339.191
668.637	9296.787
668.765	9254.723
668.893	9294.234
669.021	9222.511
669.149	9261.511
669.277	9318.383
669.405	9186.447
669.533	9199.213
669.662	9411.915
669.790	9180.638
669.918	9234.872
670.046	9149.830
670.174	9170.787
670.302	9135.957
670.430	9120.170
670.558	9096.766
670.687	8962.872
670.815	9127.085
670.943	8943.404
671.071	8954.979
671.199	8975.532
671.327	8893.809
671.455	8881.532
671.583	8802.596
671.712	8968.277
671.840	8827.064
671.968	8700.447
672.096	8740.021
672.224	8701.298
672.352	8831.915
672.480	8694.553
672.608	8599.915
672.737	8532.638
672.865	8679.660
672.993	8508.596
673.121	8435.872
673.249	8418.191
673.377	8414.447
673.505	8350.128
673.633	8344.277
673.762	8297.213
673.890	8264.149
674.018	8494.319
674.146	8233.596
674.274	8211.936
674.402	8368.574
674.530	8190.936
674.658	8138.255
674.787	8066.255
674.915	8036.553
675.043	8137.191
675.171	8043.638
675.299	7972.000
675.427	7990.617
675.555	7918.979
675.683	7932.894
675.812	7873.702
675.940	7891.851
676.068	7828.489
676.196	7780.553
676.324	7772.298
676.452	7748.213
676.580	7676.447
676.708	7697.021
676.837	7708.149
676.965	7625.638
677.093	7558.532
677.221	7514.574
677.349	7548.894
677.477	7573.830
677.605	7461.915
677.733	7526.298
677.862	7396.170
677.990	7353.787
678.118	7346.936
678.246	7336.617
678.374	7379.447
678.502	7250.957
678.630	7249.383
678.758	7214.745
678.887	7189.809
679.015	7214.766
679.143	7158.766
679.271	7154.319
679.399	7170.213
679.527	7128.404
679.655	7068.085
679.783	7126.149
679.912	7165.660
680.040	7046.617
680.168	7059.404
680.296	7044.936
680.424	6982.000
680.552	6995.277
680.680	7049.809
680.808	6902.383
680.937	6902.809
681.065	6874.298
681.193	6902.702
681.321	6877.702
681.449	6848.255
681.577	6900.809
681.705	6863.596
681.833	6804.319
681.962	6789.936
682.090	6939.298
682.218	6743.809
682.346	6751.404
682.474	6756.021
682.602	6714.319
682.730	6748.298
682.858	6698.745
682.987	6755.723
683.115	6673.404
683.243	6602.149
683.371	6601.043
683.499	6655.426
683.627	6675.149
683.755	6657.149
683.883	6716.489
684.012	6573.766
684.140	6549.957
684.268	6517.255
684.396	6538.043
684.524	6544.809
684.652	6573.383
684.780	6497.532
684.908	6532.511
685.037	6448.128
685.165	6421.085
685.293	6410.170
685.421	6515.043
685.549	6392.064
685.677	6353.447
685.805	6509.021
685.933	6379.064
686.062	6303.660
686.190	6246.766
686.318	6335.787
686.446	6295.404
686.574	6261.362
686.702	6358.319
686.830	6216.511
686.958	6167.255
687.087	6237.532
687.215	6236.936
687.343	6144.064
687.471	6150.043
687.599	6124.532
687.727	6306.191
687.855	6140.936
687.983	6163.000
688.112	6150.809
688.240	6070.234
688.368	6042.064
688.496	6045.234
688.624	6088.745
688.752	5975.340
688.880	5990.596
689.008	5958.170
689.137	5962.064
689.265	5884.894
689.393	5884.468
689.521	5883.149
689.649	5888.383
689.777	5865.426
689.905	5783.404
690.033	5819.447
690.162	5794.277
690.290	5755.149
690.418	5743.043
690.546	5835.319
690.674	5794.936
690.802	5687.021
690.930	5719.426
691.058	5690.255
691.187	5653.191
691.315	5608.447
691.443	5695.553
691.571	5621.404
691.699	5581.553
691.827	5653.021
691.955	5538.255
692.083	5537.404
692.212	5672.468
692.340	5513.787
692.468	5520.128
692.596	5506.915
692.724	5590.596
692.852	5411.277
692.980	5512.191
693.108	5427.000
693.237	5368.404
693.365	5362.447
693.493	5315.319
693.621	5318.681
693.749	5264.362
693.877	5269.660
694.005	5327.596
694.133	5278.043
694.262	5263.362
694.390	5176.000
694.518	5195.681
694.646	5178.872
694.774	5159.979
694.902	5295.511
695.030	5188.362
695.158	5115.574
695.287	5112.851
695.415	5099.957
695.543	5087.064
695.671	5176.851
695.799	5070.979
695.927	5057.362
696.055	5016.617
696.183	5045.447
696.312	5014.681
696.440	5149.851
696.568	5038.000
696.696	5029.213
696.824	4947.191
696.952	4935.128
697.080	4953.702
697.208	4898.213
697.337	4945.447
697.465	4880.851
697.593	4817.255
697.721	4820.957
697.849	4848.468
697.977	4836.426
698.105	4817.936
698.233	4772.809
698.362	4776.043
698.490	4745.277
698.618	4759.128
698.746	4834.064
698.874	4759.489
699.002	4946.872
699.130	4715.532
699.258	4722.213
699.387	4660.319
699.515	4672.574
699.643	4641.191
699.771	4700.234
699.899	4650.489
700.027	4624.362
700.155	4570.702
700.283	4578.787
700.412	4625.553
700.540	4566.468
700.668	4569.426
700.796	4528.532
700.924	4508.681
701.052	4499.617
701.180	4586.809
701.308	4504.660
701.437	4385.681
701.565	4376.128
701.693	4358.830
701.821	4394.617
701.949	4360.809
702.077	4390.298
702.205	4279.255
702.333	4324.255
702.462	4295.872
702.590	4285.106
702.718	4220.043
702.846	4226.298
702.974	4189.191
703.102	4210.085
703.230	4267.872
703.358	4180.362
703.487	4129.723
703.615	4310.957
703.743	4108.617
703.871	4093.468
703.999	4112.638
704.127	4184.681
704.255	3997.170
704.383	4147.745
704.512	4014.447
704.640	4001.319
704.768	3911.830
704.896	4018.851
705.024	3918.340
705.152	3984.809
705.280	3856.319
705.408	3843.617
705.537	3873.277
705.665	3783.277
705.793	3789.234
705.921	3774.915
706.049	3766.021
706.177	3736.298
706.305	3743.468
706.433	3832.532
706.562	3741.766
706.690	3670.681
706.818	3647.681
706.946	3852.319
707.074	3657.511
707.202	3616.511
707.330	3685.426
707.458	3619.170
707.587	3558.447
707.715	3568.277
707.843	3591.872
707.971	3622.064
708.099	3606.830
708.227	3505.574
708.355	3495.447
708.483	3488.404
708.612	3464.404
708.740	3488.255
708.868	3539.511
708.996	3465.000
709.124	3479.468
709.252	3423.319
709.380	3370.872
709.508	3428.617
709.637	3367.021
709.765	3354.255
709.893	3379.383
710.021	3358.915
710.149	3322.468
710.277	3356.447
710.405	3289.468
710.533	3294.851
710.662	3272.617
710.790	3263.404
710.918	3285.766
711.046	3257.894
711.174	3218.596
711.302	3269.298
711.430	3290.681
711.558	3163.681
711.687	3187.957
711.815	3209.766
711.943	3164.000
712.071	3184.277
712.199	3204.638
712.327	3183.170
712.455	3088.383
712.583	3140.766
712.712	3133.426
712.840	3111.702
712.968	3104.128
713.096	3128.064
713.224	3056.340
713.352	3090.979
713.480	3042.362
713.608	3058.170
713.737	3084.872
713.865	3052.553
713.993	3104.617
714.121	3026.681
714.249	3054.681
714.377	3114.213
714.505	3020.723
714.633	3179.596
714.762	3027.596
714.890	2949.660
715.018	3011.426
715.146	2995.766
715.274	3024.468
715.402	3154.723
715.530	3059.766
715.658	2913.660
715.787	2887.362
715.915	3124.511
716.043	2914.532
716.171	3006.064
716.299	2991.085
716.427	2910.553
716.555	2882.149
716.683	2874.851
716.812	2870.745
716.940	2895.234
717.068	2801.596
717.196	3030.872
717.324	2946.447
717.452	2831.809
717.580	2780.021
717.708	2813.681
717.837	2889.255
717.965	2733.511
718.093	2791.787
718.221	2716.128
718.349	2775.021
718.477	2765.745
718.605	2814.426
718.733	2710.681
718.862	2741.340
718.990	2715.851
719.118	2722.574
719.246	2652.319
719.374	2762.894
719.502	2699.766
719.630	2852.234
719.758	2640.574
719.887	2647.170
720.015	2843.064
720.143	2617.872
720.271	2642.511
720.399	2643.191
720.527	2677.511
720.655	2695.021
720.783	2693.468
720.912	2612.660
721.040	2582.638
721.168	2598.362
721.296	2656.979
721.424	2580.681
721.552	2512.426
721.680	2539.234
721.808	2590.681
721.937	2584.511
722.065	2618.872
722.193	2595.660
722.321	2539.809
722.449	2515.404
722.577	2507.340
722.705	2531.106
722.833	2535.936
722.962	2530.979
723.090	2485.638
723.218	2478.043
723.346	2481.277
723.474	2477.277
723.602	2556.574
723.730	2537.277
723.858	2540.021
723.987	2518.362
724.115	2457.255
724.243	2470.660
724.371	2472.213
724.499	2490.894
724.627	2445.255
724.755	2429.681
724.883	2441.362
725.012	2432.404
725.140	2406.723
725.268	2400.787
725.396	2391.894
725.524	2384.787
725.652	2385.596
725.780	2362.447
725.908	2365.191
726.037	2374.489
726.165	2344.426
726.293	2307.830
726.421	2303.319
726.549	2320.702
726.677	2308.468
726.805	2295.915
726.933	2287.596
727.062	2246.702
727.190	2300.511
727.318	2277.617
727.446	2272.468
727.574	2245.447
727.702	2281.830
727.830	2218.596
727.958	2269.085
728.087	2254.255
728.215	2241.723
728.343	2198.936
728.471	2223.319
728.599	2205.766
728.727	2211.596
728.855	2206.000
728.983	2186.191
729.112	2167.745
729.240	2178.553
729.368	2159.255
729.496	2175.383
729.624	2147.319
729.752	2155.957
729.880	2154.979
730.008	2135.787
730.137	2126.511
730.265	2160.511
730.393	2140.085
730.521	2115.319
