90pol_70_70_at_750.00nm_cut_at_984.50Y_01.dat
24.04.2023
11:00:52
cut middle at Y: 984.50
top cursor: 1008 down cursor: 961 mean of: 47 lines , 2560 datapoints
wavelength(nm)	intensity[arb. units]
585.996	16760.638
586.124	16246.234
586.252	16170.957
586.380	16196.809
586.508	16237.426
586.637	16318.426
586.765	16436.915
586.893	16445.255
587.021	16429.872
587.149	16525.149
587.277	16560.489
587.405	16594.340
587.533	16535.851
587.662	16748.000
587.790	16663.106
587.918	16617.277
588.046	16670.660
588.174	16591.872
588.302	16725.468
588.430	16674.809
588.558	16654.213
588.687	16729.213
588.815	16699.149
588.943	16690.681
589.071	16680.532
589.199	16747.149
589.327	16729.553
589.455	16687.723
589.583	16814.085
589.712	16782.213
589.840	16766.149
589.968	16764.532
590.096	16778.660
590.224	16800.766
590.352	16795.021
590.480	16800.340
590.608	16769.489
590.737	16883.957
590.865	16910.468
590.993	16825.787
591.121	16833.298
591.249	16872.362
591.377	16872.021
591.505	16914.383
591.633	16919.872
591.762	16917.085
591.890	17074.809
592.018	16970.191
592.146	16967.213
592.274	16971.170
592.402	16985.617
592.530	17025.043
592.658	17274.213
592.787	17089.255
592.915	17308.106
593.043	17182.383
593.171	17240.383
593.299	17253.362
593.427	17309.021
593.555	17373.404
593.683	17400.191
593.812	17476.766
593.940	17492.021
594.068	17553.234
594.196	17682.574
594.324	17666.447
594.452	17629.170
594.580	17732.085
594.708	17820.596
594.837	17754.979
594.965	17867.255
595.093	17963.000
595.221	17919.319
595.349	18097.809
595.477	18081.404
595.605	18023.340
595.733	18065.128
595.862	18351.617
595.990	18167.000
596.118	18278.149
596.246	18437.936
596.374	18305.447
596.502	18404.702
596.630	18373.936
596.758	18387.702
596.887	18368.213
597.015	18463.340
597.143	18522.915
597.271	18484.723
597.399	18569.553
597.527	18463.468
597.655	18577.532
597.783	18515.447
597.912	18591.617
598.040	18584.298
598.168	18631.957
598.296	18606.553
598.424	18590.128
598.552	18596.766
598.680	18553.511
598.808	18696.213
598.937	18653.234
599.065	18552.617
599.193	18561.319
599.321	18581.489
599.449	18561.128
599.577	18512.362
599.705	18597.426
599.833	18598.149
599.962	18631.404
600.090	18604.638
600.218	18678.745
600.346	18743.128
600.474	18669.319
600.602	18704.340
600.730	18777.064
600.858	18803.277
600.987	18921.872
601.115	18827.340
601.243	18944.426
601.371	18946.191
601.499	19053.128
601.627	19112.383
601.755	19153.085
601.883	19284.383
602.012	19273.596
602.140	19301.000
602.268	19472.936
602.396	19425.979
602.524	19611.383
602.652	19539.191
602.780	19676.979
602.908	19718.000
603.037	19779.660
603.165	19841.957
603.293	19978.447
603.421	20034.638
603.549	20163.340
603.677	20250.766
603.805	20275.021
603.933	20341.319
604.062	20515.936
604.190	20533.723
604.318	20654.298
604.446	20702.128
604.574	20711.298
604.702	20854.638
604.830	20911.170
604.958	20986.468
605.087	21150.660
605.215	21240.085
605.343	21152.532
605.471	21288.787
605.599	21379.000
605.727	21369.766
605.855	21482.787
605.983	21479.617
606.112	21556.745
606.240	21563.872
606.368	21625.660
606.496	21827.149
606.624	21611.489
606.752	21767.191
606.880	21870.021
607.008	21884.617
607.137	21844.617
607.265	21727.149
607.393	21786.191
607.521	21802.787
607.649	21817.851
607.777	21715.255
607.905	21761.638
608.033	21718.277
608.162	21755.362
608.290	21719.213
608.418	21730.043
608.546	21728.638
608.674	21729.660
608.802	21714.128
608.930	21659.745
609.058	21694.128
609.187	21727.319
609.315	21755.383
609.443	21724.043
609.571	21706.894
609.699	21739.617
609.827	21758.851
609.955	21674.957
610.083	21689.574
610.212	21698.723
610.340	21712.191
610.468	21788.489
610.596	21775.745
610.724	21795.319
610.852	21772.894
610.980	21837.936
611.108	21840.638
611.237	21823.043
611.365	21875.404
611.493	21872.553
611.621	21965.340
611.749	21948.553
611.877	22092.979
612.005	22039.043
612.133	22165.553
612.262	22231.298
612.390	22214.319
612.518	22258.319
612.646	22431.745
612.774	22334.085
612.902	22482.511
613.030	22631.574
613.158	22746.872
613.287	22716.532
613.415	22730.979
613.543	22725.872
613.671	22685.064
613.799	22855.255
613.927	22705.489
614.055	22762.000
614.183	22999.255
614.312	22946.064
614.440	23066.383
614.568	23009.404
614.696	23116.979
614.824	23330.128
614.952	23172.319
615.080	23250.021
615.208	23305.936
615.337	23480.617
615.465	23563.511
615.593	23694.000
615.721	23833.936
615.849	24012.894
615.977	24004.766
616.105	23979.085
616.233	23903.745
616.362	23984.511
616.490	24068.553
616.618	24111.617
616.746	24146.191
616.874	24225.872
617.002	24154.596
617.130	24222.915
617.258	24380.362
617.387	24327.617
617.515	24389.681
617.643	24358.170
617.771	24414.936
617.899	24474.617
618.027	24422.085
618.155	24587.298
618.283	24484.319
618.412	24567.894
618.540	24699.213
618.668	24642.085
618.796	24580.404
618.924	24774.553
619.052	24696.489
619.180	24772.383
619.308	24873.979
619.437	24809.362
619.565	24776.447
619.693	24786.979
619.821	24786.426
619.949	24795.149
620.077	24966.979
620.205	24897.085
620.333	24970.489
620.462	25032.979
620.590	25001.170
620.718	24932.936
620.846	25011.234
620.974	25037.723
621.102	24992.511
621.230	25005.809
621.358	25204.277
621.487	25004.404
621.615	25069.574
621.743	25214.553
621.871	25171.447
621.999	25238.894
622.127	25140.957
622.255	25141.255
622.383	25174.574
622.512	25082.191
622.640	25256.702
622.768	25123.043
622.896	25167.809
623.024	25127.532
623.152	25249.426
623.280	25179.702
623.408	25127.553
623.537	25162.234
623.665	25186.617
623.793	25133.191
623.921	25203.234
624.049	25097.213
624.177	25146.617
624.305	25161.447
624.433	25183.106
624.562	25187.362
624.690	25124.830
624.818	25249.191
624.946	25372.043
625.074	25235.787
625.202	25172.021
625.330	25164.362
625.458	25220.149
625.587	25254.830
625.715	25191.617
625.843	25286.128
625.971	25254.872
626.099	25203.872
626.227	25200.511
626.355	25221.638
626.483	25291.936
626.612	25216.383
626.740	25341.830
626.868	25395.681
626.996	25331.149
627.124	25344.319
627.252	25291.043
627.380	25375.277
627.508	25396.085
627.637	25381.128
627.765	25401.170
627.893	25503.638
628.021	25576.106
628.149	25741.894
628.277	25931.979
628.405	25844.064
628.533	25630.043
628.662	25686.255
628.790	25701.255
628.918	25828.787
629.046	25765.702
629.174	25934.617
629.302	26237.936
629.430	26061.277
629.558	25987.340
629.687	26033.340
629.815	26120.319
629.943	26160.532
630.071	26181.638
630.199	26262.447
630.327	26319.319
630.455	26354.766
630.583	26481.787
630.712	26506.745
630.840	26491.851
630.968	26610.426
631.096	26499.362
631.224	26555.532
631.352	26593.043
631.480	26639.170
631.608	26679.191
631.737	26795.532
631.865	26823.723
631.993	26665.681
632.121	26891.021
632.249	26896.851
632.377	26821.362
632.505	26850.447
632.633	26643.128
632.762	26778.128
632.890	26915.745
633.018	26668.851
633.146	26935.362
633.274	26825.851
633.402	26774.638
633.530	26777.064
633.658	26922.489
633.787	26746.362
633.915	26793.809
634.043	26719.745
634.171	26774.617
634.299	26758.277
634.427	26771.426
634.555	26708.894
634.683	26587.362
634.812	26635.851
634.940	26613.277
635.068	26635.128
635.196	26546.766
635.324	26515.489
635.452	26569.170
635.580	26443.681
635.708	26458.660
635.837	26459.043
635.965	26381.617
636.093	26310.723
636.221	26298.915
636.349	26374.128
636.477	26286.426
636.605	26383.021
636.733	26151.532
636.862	26150.681
636.990	26167.617
637.118	26123.447
637.246	26127.532
637.374	26097.255
637.502	26038.362
637.630	25972.426
637.758	25994.468
637.887	25951.277
638.015	25907.319
638.143	25900.979
638.271	25908.511
638.399	25859.894
638.527	25857.596
638.655	25854.957
638.783	25965.468
638.912	25828.660
639.040	25770.362
639.168	25819.128
639.296	25781.170
639.424	25975.809
639.552	25762.723
639.680	25905.191
639.808	25838.489
639.937	25750.957
640.065	25745.149
640.193	25837.915
640.321	25660.191
640.449	25686.362
640.577	25826.404
640.705	25735.638
640.833	25840.298
640.962	25718.106
641.090	25725.936
641.218	25793.298
641.346	25794.085
641.474	25840.426
641.602	25839.106
641.730	25864.170
641.858	25838.149
641.987	25900.830
642.115	25873.660
642.243	26027.766
642.371	25923.404
642.499	25997.426
642.627	26030.511
642.755	26051.383
642.883	26020.532
643.012	26041.766
643.140	26016.702
643.268	26083.681
643.396	26065.128
643.524	26199.000
643.652	26124.021
643.780	26092.894
643.908	26198.809
644.037	26278.830
644.165	26173.830
644.293	26164.340
644.421	26207.830
644.549	26286.596
644.677	26226.468
644.805	26243.532
644.933	26186.128
645.062	26212.787
645.190	26231.362
645.318	26361.915
645.446	26274.447
645.574	26274.255
645.702	26192.319
645.830	26441.957
645.958	26205.319
646.087	26475.043
646.215	26164.723
646.343	26402.979
646.471	26177.383
646.599	26225.872
646.727	26139.298
646.855	26090.319
646.983	26211.213
647.112	26061.851
647.240	26222.191
647.368	26042.021
647.496	26088.894
647.624	25973.532
647.752	25910.809
647.880	25937.574
648.008	25915.213
648.137	25855.766
648.265	25879.617
648.393	25887.660
648.521	25816.298
648.649	25785.340
648.777	25750.043
648.905	25710.255
649.033	25692.702
649.162	25603.638
649.290	25594.298
649.418	25562.894
649.546	25512.872
649.674	25526.021
649.802	25402.021
649.930	25525.340
650.058	25356.000
650.187	25384.106
650.315	25340.596
650.443	25341.745
650.571	25269.745
650.699	25299.979
650.827	25187.213
650.955	25236.149
651.083	25147.851
651.212	25218.426
651.340	25158.681
651.468	25090.872
651.596	25028.234
651.724	24963.106
651.852	25020.681
651.980	24921.447
652.108	24892.340
652.237	24880.021
652.365	25028.553
652.493	24826.149
652.621	24840.511
652.749	24821.915
652.877	24727.191
653.005	24792.468
653.133	24729.766
653.262	24706.723
653.390	24652.255
653.518	24686.043
653.646	24660.660
653.774	24757.213
653.902	24537.021
654.030	24525.213
654.158	24479.383
654.287	24517.362
654.415	24457.617
654.543	24453.681
654.671	24409.745
654.799	24399.532
654.927	24418.340
655.055	24324.021
655.183	24276.596
655.312	24220.830
655.440	24251.404
655.568	24114.149
655.696	24142.362
655.824	24264.745
655.952	24089.681
656.080	24041.894
656.208	24085.319
656.337	23906.213
656.465	23929.809
656.593	23897.447
656.721	23775.149
656.849	23830.979
656.977	23707.915
657.105	23639.128
657.233	23580.894
657.362	23569.319
657.490	23480.404
657.618	23473.106
657.746	23483.170
657.874	23359.766
658.002	23348.596
658.130	23273.319
658.258	23178.234
658.387	23169.915
658.515	23096.915
658.643	23162.596
658.771	23077.489
658.899	23032.468
659.027	22931.128
659.155	22963.723
659.283	23070.106
659.412	22900.213
659.540	22889.894
659.668	22730.213
659.796	22738.809
659.924	22777.511
660.052	22667.596
660.180	22596.532
660.308	22524.936
660.437	22470.574
660.565	22462.128
660.693	22347.532
660.821	22330.191
660.949	22380.319
661.077	22291.979
661.205	22246.766
661.333	22206.511
661.462	22193.489
661.590	22194.191
661.718	22265.617
661.846	22155.021
661.974	22188.957
662.102	22004.298
662.230	21994.000
662.358	21925.511
662.487	21963.149
662.615	21841.766
662.743	21862.596
662.871	21889.383
662.999	21804.383
663.127	21794.511
663.255	21895.362
663.383	21772.596
663.512	21767.872
663.640	21761.255
663.768	21704.830
663.896	21807.894
664.024	21754.851
664.152	21713.255
664.280	21797.787
664.408	21635.872
664.537	21735.234
664.665	21636.638
664.793	21599.745
664.921	21538.872
665.049	21573.362
665.177	21540.170
665.305	21501.596
665.433	21539.681
665.562	21506.957
665.690	21492.702
665.818	21716.106
665.946	21507.574
666.074	21436.106
666.202	21522.277
666.330	21461.872
666.458	21412.957
666.587	21408.404
666.715	21425.809
666.843	21375.298
666.971	21299.170
667.099	21363.447
667.227	21377.319
667.355	21327.638
667.483	21320.298
667.612	21286.532
667.740	21297.191
667.868	21287.234
667.996	21223.362
668.124	21171.128
668.252	21146.851
668.380	21182.809
668.508	21126.894
668.637	21066.702
668.765	21010.298
668.893	20967.277
669.021	21006.745
669.149	20926.723
669.277	20953.426
669.405	20771.617
669.533	20795.851
669.662	21056.149
669.790	20815.574
669.918	20758.234
670.046	20708.043
670.174	20675.851
670.302	20592.681
670.430	20551.170
670.558	20524.979
670.687	20366.617
670.815	20534.149
670.943	20382.085
671.071	20291.681
671.199	20184.574
671.327	20163.894
671.455	20171.468
671.583	20050.043
671.712	20139.745
671.840	20022.915
671.968	19827.191
672.096	19843.936
672.224	19719.830
672.352	19816.766
672.480	19705.149
672.608	19578.255
672.737	19453.255
672.865	19593.766
672.993	19421.830
673.121	19321.957
673.249	19200.638
673.377	19125.915
673.505	19059.936
673.633	19053.255
673.762	18899.574
673.890	18866.511
674.018	19089.298
674.146	18732.447
674.274	18680.660
674.402	18811.404
674.530	18596.149
674.658	18517.383
674.787	18427.340
674.915	18337.745
675.043	18365.553
675.171	18305.894
675.299	18147.277
675.427	18070.319
675.555	17980.809
675.683	17957.638
675.812	17855.957
675.940	17854.021
676.068	17836.532
676.196	17712.362
676.324	17692.128
676.452	17587.915
676.580	17509.702
676.708	17502.213
676.837	17411.830
676.965	17359.447
677.093	17285.021
677.221	17222.596
677.349	17221.489
677.477	17136.936
677.605	17023.021
677.733	17063.872
677.862	16897.532
677.990	16827.681
678.118	16823.426
678.246	16772.362
678.374	16759.745
678.502	16680.979
678.630	16580.468
678.758	16560.915
678.887	16539.511
679.015	16457.191
679.143	16417.766
679.271	16307.447
679.399	16311.255
679.527	16229.362
679.655	16149.277
679.783	16177.277
679.912	16071.511
680.040	16081.638
680.168	16049.638
680.296	15973.596
680.424	15886.489
680.552	15884.021
680.680	15910.277
680.808	15762.787
680.937	15725.085
681.065	15701.809
681.193	15649.915
681.321	15638.574
681.449	15557.426
681.577	15623.085
681.705	15530.660
681.833	15507.532
681.962	15416.809
682.090	15568.872
682.218	15413.809
682.346	15299.000
682.474	15323.553
682.602	15302.745
682.730	15288.000
682.858	15197.936
682.987	15232.340
683.115	15234.596
683.243	15130.340
683.371	15090.702
683.499	15104.085
683.627	15073.936
683.755	15056.979
683.883	15112.106
684.012	14980.277
684.140	14877.255
684.268	14830.532
684.396	14872.106
684.524	14887.404
684.652	14915.191
684.780	14775.553
684.908	14796.191
685.037	14714.043
685.165	14642.830
685.293	14592.809
685.421	14679.468
685.549	14518.660
685.677	14546.787
685.805	14587.638
685.933	14577.170
686.062	14409.957
686.190	14368.617
686.318	14354.340
686.446	14262.085
686.574	14248.298
686.702	14301.766
686.830	14188.787
686.958	14112.064
687.087	14140.936
687.215	14120.596
687.343	14020.362
687.471	13944.511
687.599	13936.979
687.727	14042.936
687.855	13904.340
687.983	13875.128
688.112	13918.234
688.240	13721.596
688.368	13631.128
688.496	13671.894
688.624	13635.085
688.752	13544.936
688.880	13542.617
689.008	13506.596
689.137	13483.000
689.265	13350.468
689.393	13369.894
689.521	13291.723
689.649	13281.511
689.777	13236.489
689.905	13159.468
690.033	13142.723
690.162	13100.766
690.290	13031.723
690.418	12981.553
690.546	13046.213
690.674	12967.298
690.802	12803.532
690.930	12868.809
691.058	12772.106
691.187	12687.745
691.315	12663.319
691.443	12682.936
691.571	12533.957
691.699	12585.064
691.827	12569.085
691.955	12439.468
692.083	12396.851
692.212	12464.574
692.340	12308.128
692.468	12249.723
692.596	12197.553
692.724	12286.468
692.852	12129.191
692.980	12133.085
693.108	12053.255
693.237	11951.234
693.365	11928.319
693.493	11869.745
693.621	11839.298
693.749	11792.213
693.877	11720.170
694.005	11852.021
694.133	11672.128
694.262	11625.383
694.390	11520.191
694.518	11568.255
694.646	11477.298
694.774	11443.511
694.902	11547.894
695.030	11497.532
695.158	11286.340
695.287	11281.681
695.415	11299.489
695.543	11182.255
695.671	11266.468
695.799	11154.000
695.927	11101.255
696.055	11057.106
696.183	11034.511
696.312	10992.383
696.440	11105.468
696.568	10957.191
696.696	10919.383
696.824	10823.766
696.952	10736.234
697.080	10756.064
697.208	10664.574
697.337	10696.809
697.465	10638.255
697.593	10515.681
697.721	10538.468
697.849	10498.000
697.977	10410.915
698.105	10417.894
698.233	10327.021
698.362	10282.809
698.490	10259.894
698.618	10192.723
698.746	10243.170
698.874	10164.447
699.002	10324.362
699.130	10052.617
699.258	10050.851
699.387	9920.915
699.515	10021.340
699.643	9896.979
699.771	9898.447
699.899	9847.979
700.027	9797.021
700.155	9697.234
700.283	9686.213
700.412	9660.553
700.540	9542.362
700.668	9588.340
700.796	9483.213
700.924	9470.872
701.052	9395.362
701.180	9464.149
701.308	9340.191
701.437	9216.745
701.565	9210.723
701.693	9123.511
701.821	9138.617
701.949	9106.787
702.077	9055.894
702.205	8978.128
702.333	8960.468
702.462	8862.277
702.590	8855.979
702.718	8791.809
702.846	8748.319
702.974	8696.574
703.102	8664.191
703.230	8726.468
703.358	8626.574
703.487	8496.447
703.615	8626.213
703.743	8434.298
703.871	8376.766
703.999	8357.128
704.127	8378.319
704.255	8191.809
704.383	8365.894
704.512	8150.830
704.640	8144.340
704.768	8061.851
704.896	8073.128
705.024	7994.638
705.152	8004.915
705.280	7908.787
705.408	7806.787
705.537	7794.723
705.665	7773.511
705.793	7657.043
705.921	7646.128
706.049	7630.830
706.177	7561.255
706.305	7521.489
706.433	7559.383
706.562	7438.426
706.690	7405.872
706.818	7310.723
706.946	7524.340
707.074	7267.021
707.202	7245.383
707.330	7217.511
707.458	7171.340
707.587	7114.957
707.715	7052.936
707.843	7061.128
707.971	7042.404
708.099	7041.894
708.227	6923.234
708.355	6907.106
708.483	6800.936
708.612	6785.213
708.740	6796.915
708.868	6830.277
708.996	6741.681
709.124	6751.872
709.252	6668.298
709.380	6607.745
709.508	6666.702
709.637	6537.447
709.765	6517.404
709.893	6545.872
710.021	6504.191
710.149	6459.574
710.277	6437.277
710.405	6335.894
710.533	6349.383
710.662	6294.362
710.790	6252.383
710.918	6284.021
711.046	6265.957
711.174	6206.106
711.302	6192.149
711.430	6235.936
711.558	6086.043
711.687	6098.426
711.815	6133.298
711.943	6078.915
712.071	6086.277
712.199	6051.213
712.327	6002.404
712.455	5931.043
712.583	5950.936
712.712	5861.936
712.840	5852.277
712.968	5876.340
713.096	5862.340
713.224	5764.404
713.352	5817.234
713.480	5754.979
713.608	5754.319
713.737	5720.915
713.865	5686.872
713.993	5720.638
714.121	5621.298
714.249	5607.723
714.377	5686.277
714.505	5632.596
714.633	5692.149
714.762	5547.681
714.890	5511.511
715.018	5531.957
715.146	5462.851
715.274	5508.426
715.402	5573.766
715.530	5456.255
715.658	5353.787
715.787	5341.851
715.915	5528.447
716.043	5297.745
716.171	5361.723
716.299	5378.979
716.427	5262.255
716.555	5234.809
716.683	5214.447
716.812	5196.766
716.940	5205.426
717.068	5079.766
717.196	5247.213
717.324	5189.894
717.452	5098.043
717.580	5031.596
717.708	5018.064
717.837	5060.511
717.965	4951.319
718.093	4971.426
718.221	4879.085
718.349	4881.362
718.477	4935.617
718.605	4943.255
718.733	4830.723
718.862	4804.511
718.990	4771.638
719.118	4772.064
719.246	4735.404
719.374	4782.298
719.502	4734.809
719.630	4819.191
719.758	4604.170
719.887	4592.894
720.015	4763.872
720.143	4544.255
720.271	4538.426
720.399	4555.532
720.527	4545.596
720.655	4536.277
720.783	4541.319
720.912	4435.766
721.040	4419.979
721.168	4361.043
721.296	4387.596
721.424	4374.979
721.552	4300.128
721.680	4283.404
721.808	4319.872
721.937	4262.894
722.065	4305.043
722.193	4318.213
722.321	4176.426
722.449	4137.702
722.577	4119.426
722.705	4064.681
722.833	4101.191
722.962	4068.170
723.090	3966.043
723.218	3942.766
723.346	3970.170
723.474	3895.787
723.602	4047.128
723.730	3978.851
723.858	4020.936
723.987	3905.596
724.115	3925.915
724.243	3829.128
724.371	3792.681
724.499	3839.617
724.627	3732.787
724.755	3720.660
724.883	3737.191
725.012	3675.979
725.140	3701.021
725.268	3637.106
725.396	3573.277
725.524	3572.681
725.652	3594.809
725.780	3543.723
725.908	3592.468
726.037	3673.617
726.165	3469.447
726.293	3417.638
726.421	3413.957
726.549	3393.021
726.677	3395.362
726.805	3375.723
726.933	3331.851
727.062	3384.362
727.190	3328.766
727.318	3271.553
727.446	3283.702
727.574	3265.723
727.702	3352.191
727.830	3192.106
727.958	3261.723
728.087	3186.681
728.215	3289.319
728.343	3230.106
