90pol_70_110_at_750.00nm_cut_at_984.50Y_01.dat
24.04.2023
10:53:23
cut middle at Y: 984.50
top cursor: 1008 down cursor: 961 mean of: 47 lines , 2560 datapoints
wavelength(nm)	intensity[arb. units]
585.996	19602.872
586.124	19133.979
586.252	18982.617
586.380	18986.915
586.508	19090.170
586.637	19145.255
586.765	19236.149
586.893	19307.489
587.021	19339.043
587.149	19423.766
587.277	19435.255
587.405	19498.043
587.533	19448.638
587.662	19663.064
587.790	19622.723
587.918	19591.362
588.046	19607.511
588.174	19613.383
588.302	19703.404
588.430	19688.553
588.558	19632.681
588.687	19709.681
588.815	19741.574
588.943	19717.447
589.071	19766.851
589.199	19843.234
589.327	19812.340
589.455	19738.915
589.583	19866.894
589.712	19902.149
589.840	19857.021
589.968	19866.851
590.096	19908.979
590.224	19971.149
590.352	19931.979
590.480	19902.553
590.608	19935.511
590.737	20092.000
590.865	20094.319
590.993	19969.979
591.121	20125.085
591.249	20056.660
591.377	20155.149
591.505	20150.362
591.633	20158.043
591.762	20147.468
591.890	20363.702
592.018	20231.106
592.146	20283.340
592.274	20289.000
592.402	20361.766
592.530	20390.574
592.658	20689.383
592.787	20530.383
592.915	20669.277
593.043	20607.851
593.171	20710.617
593.299	20770.085
593.427	20789.404
593.555	20908.362
593.683	20967.979
593.812	21025.574
593.940	21063.277
594.068	21162.723
594.196	21283.447
594.324	21334.213
594.452	21339.043
594.580	21428.596
594.708	21547.170
594.837	21553.319
594.965	21667.851
595.093	21806.574
595.221	21837.957
595.349	22017.596
595.477	21991.511
595.605	22059.915
595.733	22019.213
595.862	22373.085
595.990	22235.830
596.118	22296.979
596.246	22547.681
596.374	22483.021
596.502	22551.574
596.630	22532.894
596.758	22595.532
596.887	22558.702
597.015	22694.979
597.143	22794.362
597.271	22731.149
597.399	22816.574
597.527	22871.617
597.655	22882.106
597.783	22841.362
597.912	22946.043
598.040	22962.681
598.168	23002.489
598.296	22982.681
598.424	22973.872
598.552	22977.426
598.680	23030.213
598.808	23069.723
598.937	23044.447
599.065	23009.362
599.193	23098.979
599.321	23164.660
599.449	23060.574
599.577	23092.894
599.705	23131.660
599.833	23178.277
599.962	23153.255
600.090	23259.532
600.218	23340.915
600.346	23334.234
600.474	23320.277
600.602	23369.872
600.730	23493.681
600.858	23519.255
600.987	23778.936
601.115	23586.277
601.243	23768.234
601.371	23796.489
601.499	23935.851
601.627	24076.128
601.755	24096.660
601.883	24185.191
602.012	24317.511
602.140	24326.170
602.268	24519.660
602.396	24601.915
602.524	24786.511
602.652	24794.362
602.780	24970.170
602.908	24997.170
603.037	25158.532
603.165	25292.404
603.293	25368.830
603.421	25464.809
603.549	25642.723
603.677	25786.617
603.805	25958.574
603.933	26052.149
604.062	26271.787
604.190	26299.170
604.318	26476.383
604.446	26547.149
604.574	26739.085
604.702	26847.149
604.830	27046.553
604.958	27118.383
605.087	27274.596
605.215	27304.660
605.343	27411.447
605.471	27601.915
605.599	27742.660
605.727	27795.638
605.855	27882.426
605.983	27982.234
606.112	28069.702
606.240	28155.000
606.368	28196.362
606.496	28465.277
606.624	28419.000
606.752	28461.979
606.880	28652.830
607.008	28738.957
607.137	28747.340
607.265	28672.915
607.393	28789.596
607.521	28899.936
607.649	28813.894
607.777	28874.021
607.905	28887.255
608.033	28939.426
608.162	28978.830
608.290	28981.319
608.418	28919.915
608.546	29006.383
608.674	29028.255
608.802	29080.638
608.930	29043.000
609.058	29124.255
609.187	29289.319
609.315	29268.000
609.443	29197.170
609.571	29331.936
609.699	29329.617
609.827	29418.894
609.955	29385.872
610.083	29383.809
610.212	29434.979
610.340	29469.085
610.468	29564.957
610.596	29605.660
610.724	29642.213
610.852	29630.213
610.980	29725.149
611.108	29785.064
611.237	29807.277
611.365	29895.149
611.493	29859.213
611.621	30097.426
611.749	30149.745
611.877	30217.638
612.005	30364.596
612.133	30421.830
612.262	30533.191
612.390	30610.043
612.518	30716.553
612.646	30952.255
612.774	30911.128
612.902	31171.830
613.030	31252.872
613.158	31537.255
613.287	31568.532
613.415	31683.915
613.543	31557.553
613.671	31728.532
613.799	31951.936
613.927	31892.511
614.055	32027.426
614.183	32236.787
614.312	32147.468
614.440	32409.021
614.568	32464.000
614.696	32573.106
614.824	32885.277
614.952	32815.851
615.080	32981.979
615.208	33161.809
615.337	33298.511
615.465	33370.979
615.593	33705.298
615.721	33833.979
615.849	34070.213
615.977	34129.745
616.105	34260.191
616.233	34206.298
616.362	34284.915
616.490	34339.064
616.618	34467.468
616.746	34619.553
616.874	34802.170
617.002	34797.957
617.130	34933.574
617.258	35167.681
617.387	35088.957
617.515	35218.021
617.643	35314.766
617.771	35234.596
617.899	35420.851
618.027	35484.745
618.155	35603.319
618.283	35659.128
618.412	35760.660
618.540	35827.745
618.668	35975.596
618.796	36039.362
618.924	36190.043
619.052	36198.553
619.180	36166.468
619.308	36362.468
619.437	36393.277
619.565	36461.149
619.693	36489.340
619.821	36545.021
619.949	36568.213
620.077	36794.021
620.205	36829.872
620.333	36952.702
620.462	36967.787
620.590	37103.702
620.718	37071.362
620.846	37050.894
620.974	37156.745
621.102	37191.809
621.230	37294.979
621.358	37410.787
621.487	37379.574
621.615	37420.319
621.743	37608.255
621.871	37583.872
621.999	37661.234
622.127	37598.553
622.255	37778.766
622.383	37724.617
622.512	37786.872
622.640	37996.638
622.768	37908.936
622.896	37960.298
623.024	38043.723
623.152	38215.574
623.280	38123.043
623.408	38129.660
623.537	38163.149
623.665	38117.340
623.793	38264.574
623.921	38363.574
624.049	38356.596
624.177	38372.872
624.305	38402.426
624.433	38440.915
624.562	38586.915
624.690	38526.319
624.818	38639.830
624.946	38740.617
625.074	38623.957
625.202	38733.298
625.330	38819.532
625.458	38819.681
625.587	38956.787
625.715	38843.170
625.843	39049.128
625.971	39018.319
626.099	39040.404
626.227	39118.362
626.355	39024.957
626.483	39207.787
626.612	39265.723
626.740	39355.660
626.868	39422.979
626.996	39419.532
627.124	39493.979
627.252	39455.468
627.380	39625.468
627.508	39824.638
627.637	39738.809
627.765	39774.872
627.893	40051.553
628.021	40044.085
628.149	40416.234
628.277	40519.064
628.405	40631.766
628.533	40449.830
628.662	40468.043
628.790	40535.149
628.918	40637.872
629.046	40785.234
629.174	41024.468
629.302	41240.723
629.430	41321.426
629.558	41297.638
629.687	41297.596
629.815	41477.064
629.943	41536.277
630.071	41523.809
630.199	41681.234
630.327	41759.745
630.455	41971.872
630.583	42041.511
630.712	42051.277
630.840	42259.894
630.968	42230.362
631.096	42293.319
631.224	42467.340
631.352	42436.787
631.480	42628.149
631.608	42588.106
631.737	42734.511
631.865	42933.362
631.993	42846.319
632.121	43093.404
632.249	43046.894
632.377	43034.532
632.505	43127.809
632.633	43010.170
632.762	43047.702
632.890	43153.319
633.018	43136.128
633.146	43328.064
633.274	43202.638
633.402	43240.617
633.530	43204.702
633.658	43474.617
633.787	43252.447
633.915	43310.234
634.043	43240.404
634.171	43296.213
634.299	43253.468
634.427	43260.936
634.555	43262.638
634.683	43227.745
634.812	43253.191
634.940	43171.191
635.068	43264.468
635.196	43181.234
635.324	43122.128
635.452	43141.319
635.580	43207.298
635.708	43056.915
635.837	43137.319
635.965	42999.426
636.093	42999.149
636.221	42948.213
636.349	42991.574
636.477	42840.191
636.605	42873.234
636.733	42719.426
636.862	42757.468
636.990	42754.617
637.118	42696.745
637.246	42734.979
637.374	42607.787
637.502	42638.702
637.630	42548.340
637.758	42536.809
637.887	42560.000
638.015	42450.085
638.143	42467.128
638.271	42441.170
638.399	42343.617
638.527	42376.085
638.655	42321.298
638.783	42464.745
638.912	42434.787
639.040	42323.447
639.168	42383.149
639.296	42345.511
639.424	42440.362
639.552	42295.170
639.680	42515.617
639.808	42456.277
639.937	42399.000
640.065	42340.979
640.193	42452.851
640.321	42353.277
640.449	42393.149
640.577	42537.553
640.705	42521.894
640.833	42499.106
640.962	42360.702
641.090	42359.106
641.218	42431.957
641.346	42523.234
641.474	42515.723
641.602	42546.064
641.730	42555.872
641.858	42550.957
641.987	42728.128
642.115	42691.936
642.243	42700.021
642.371	42740.426
642.499	42740.660
642.627	42787.128
642.755	42851.255
642.883	42888.064
643.012	42895.426
643.140	42941.787
643.268	42925.574
643.396	42915.553
643.524	43162.000
643.652	43002.340
643.780	42937.170
643.908	43085.957
644.037	43069.745
644.165	43051.064
644.293	42990.255
644.421	43069.574
644.549	43123.106
644.677	43131.638
644.805	43083.596
644.933	43038.511
645.062	43070.021
645.190	43073.447
645.318	43107.213
645.446	42976.532
645.574	43026.170
645.702	43028.149
645.830	43162.468
645.958	42860.064
646.087	43087.447
646.215	42789.064
646.343	42997.553
646.471	42766.362
646.599	42893.809
646.727	42815.234
646.855	42622.574
646.983	42688.383
647.112	42546.766
647.240	42723.894
647.368	42521.723
647.496	42630.085
647.624	42551.149
647.752	42427.638
647.880	42407.936
648.008	42206.766
648.137	42297.787
648.265	42160.170
648.393	42139.809
648.521	41993.128
648.649	42003.170
648.777	41946.000
648.905	41860.043
649.033	41652.170
649.162	41639.979
649.290	41592.702
649.418	41419.851
649.546	41541.638
649.674	41395.617
649.802	41165.128
649.930	41198.957
650.058	41097.468
650.187	40997.830
650.315	40931.383
650.443	40876.574
650.571	40728.468
650.699	40700.170
650.827	40732.191
650.955	40586.085
651.083	40468.043
651.212	40361.213
651.340	40363.383
651.468	40276.277
651.596	40158.660
651.724	40082.957
651.852	40027.064
651.980	39940.596
652.108	39835.383
652.237	39719.872
652.365	39777.830
652.493	39680.000
652.621	39575.468
652.749	39506.511
652.877	39419.426
653.005	39316.979
653.133	39239.766
653.262	39146.468
653.390	39111.383
653.518	39023.638
653.646	39016.021
653.774	39008.064
653.902	38855.681
654.030	38747.660
654.158	38645.894
654.287	38608.489
654.415	38498.915
654.543	38545.021
654.671	38267.681
654.799	38350.255
654.927	38156.660
655.055	38044.979
655.183	37979.702
655.312	37878.702
655.440	37849.702
655.568	37774.936
655.696	37773.191
655.824	37660.064
655.952	37480.979
656.080	37387.787
656.208	37453.298
656.337	37194.340
656.465	37183.021
656.593	37074.213
656.721	36817.787
656.849	36911.426
656.977	36695.936
657.105	36566.787
657.233	36494.723
657.362	36460.574
657.490	36302.085
657.618	36265.851
657.746	36137.043
657.874	35980.191
658.002	35900.468
658.130	35713.915
658.258	35644.915
658.387	35556.596
658.515	35371.809
658.643	35363.383
658.771	35320.149
658.899	35140.936
659.027	35075.745
659.155	34960.447
659.283	35057.617
659.412	34787.936
659.540	34714.809
659.668	34551.872
659.796	34518.894
659.924	34409.149
660.052	34282.872
660.180	34152.362
660.308	34107.085
660.437	33999.617
660.565	33930.298
660.693	33824.085
660.821	33717.043
660.949	33604.596
661.077	33561.043
661.205	33422.872
661.333	33280.255
661.462	33373.957
661.590	33217.787
661.718	33278.149
661.846	33041.085
661.974	33074.404
662.102	32836.894
662.230	32788.766
662.358	32668.064
662.487	32677.809
662.615	32532.064
662.743	32444.617
662.871	32376.681
662.999	32336.511
663.127	32218.106
663.255	32243.277
663.383	32170.340
663.512	32107.915
663.640	32128.404
663.768	31922.723
663.896	31962.085
664.024	31973.596
664.152	31831.511
664.280	31894.617
664.408	31810.447
664.537	31746.234
664.665	31720.681
664.793	31541.213
664.921	31453.298
665.049	31403.936
665.177	31416.362
665.305	31397.936
665.433	31275.574
665.562	31244.872
665.690	31190.532
665.818	31312.043
665.946	31016.830
666.074	31009.000
666.202	30954.319
666.330	30881.511
666.458	30797.574
666.587	30715.532
666.715	30795.383
666.843	30732.660
666.971	30690.319
667.099	30540.660
667.227	30552.936
667.355	30467.340
667.483	30400.553
667.612	30275.596
667.740	30257.362
667.868	30240.894
667.996	30129.255
668.124	30082.957
668.252	30046.574
668.380	29929.681
668.508	29903.979
668.637	29758.723
668.765	29708.489
668.893	29675.574
669.021	29512.106
669.149	29497.426
669.277	29439.681
669.405	29293.191
669.533	29284.532
669.662	29367.957
669.790	29073.489
669.918	29016.191
670.046	28847.596
670.174	28910.617
670.302	28745.553
670.430	28581.043
670.558	28514.489
670.687	28408.617
670.815	28308.128
670.943	28263.915
671.071	28034.277
671.199	27944.915
671.327	27861.915
671.455	27825.234
671.583	27666.851
671.712	27669.085
671.840	27522.489
671.968	27268.404
672.096	27240.447
672.224	27180.021
672.352	27148.553
672.480	26970.043
672.608	26760.234
672.737	26652.574
672.865	26672.766
672.993	26425.021
673.121	26373.872
673.249	26179.489
673.377	26099.170
673.505	25977.255
673.633	25774.447
673.762	25719.723
673.890	25541.681
674.018	25764.213
674.146	25428.319
674.274	25260.489
674.402	25328.191
674.530	25089.745
674.658	24973.404
674.787	24800.426
674.915	24694.596
675.043	24678.277
675.171	24576.404
675.299	24370.043
675.427	24360.617
675.555	24165.957
675.683	24033.638
675.812	23928.660
675.940	23812.106
676.068	23708.191
676.196	23640.851
676.324	23548.851
676.452	23388.319
676.580	23292.170
676.708	23224.191
676.837	23127.362
676.965	23033.830
677.093	22935.468
677.221	22785.489
677.349	22761.681
677.477	22700.681
677.605	22521.255
677.733	22517.447
677.862	22351.532
677.990	22146.979
678.118	22099.234
678.246	22047.404
678.374	21977.021
678.502	21802.255
678.630	21778.447
678.758	21670.000
678.887	21542.787
679.015	21541.638
679.143	21419.979
679.271	21313.319
679.399	21270.319
679.527	21175.489
679.655	21070.915
679.783	21052.170
679.912	20998.532
680.040	20895.213
680.168	20835.234
680.296	20693.043
680.424	20636.872
680.552	20560.638
680.680	20549.064
680.808	20416.617
680.937	20350.979
681.065	20270.745
681.193	20183.681
681.321	20124.766
681.449	20068.574
681.577	20031.872
681.705	19925.234
681.833	19875.000
681.962	19745.489
682.090	19922.936
682.218	19720.489
682.346	19617.915
682.474	19549.128
682.602	19522.809
682.730	19506.681
682.858	19437.468
682.987	19477.638
683.115	19356.723
683.243	19280.596
683.371	19212.596
683.499	19171.638
683.627	19137.447
683.755	19120.383
683.883	19170.489
684.012	18911.511
684.140	18899.872
684.268	18870.404
684.396	18766.213
684.524	18812.957
684.652	18780.681
684.780	18709.787
684.908	18713.085
685.037	18571.362
685.165	18436.170
685.293	18491.553
685.421	18468.447
685.549	18286.617
685.677	18215.447
685.805	18345.404
685.933	18187.638
686.062	18136.000
686.190	18010.191
686.318	18097.149
686.446	17889.702
686.574	17824.532
686.702	17946.766
686.830	17766.191
686.958	17682.915
687.087	17669.319
687.215	17630.277
687.343	17506.872
687.471	17465.447
687.599	17361.702
687.727	17568.149
687.855	17265.553
687.983	17260.277
688.112	17268.319
688.240	17134.043
688.368	17044.681
688.496	17083.596
688.624	16993.298
688.752	16844.000
688.880	16831.809
689.008	16786.936
689.137	16717.681
689.265	16637.191
689.393	16586.745
689.521	16485.809
689.649	16415.574
689.777	16332.574
689.905	16253.489
690.033	16279.128
690.162	16204.021
690.290	16162.043
690.418	16043.383
690.546	16078.596
690.674	15982.191
690.802	15843.745
690.930	15795.702
691.058	15791.596
691.187	15635.872
691.315	15568.809
691.443	15590.511
691.571	15502.191
691.699	15449.277
691.827	15409.191
691.955	15315.106
692.083	15265.830
692.212	15339.872
692.340	15146.660
692.468	15049.851
692.596	14981.085
692.724	15096.511
692.852	14888.255
692.980	14919.362
693.108	14813.468
693.237	14670.255
693.365	14610.872
693.493	14497.681
693.621	14506.000
693.749	14447.319
693.877	14406.213
694.005	14474.426
694.133	14292.000
694.262	14303.553
694.390	14192.234
694.518	14076.553
694.646	14042.979
694.774	13983.787
694.902	14066.787
695.030	13976.234
695.158	13836.894
695.287	13764.979
695.415	13763.383
695.543	13597.617
695.671	13678.830
695.799	13624.936
695.927	13495.511
696.055	13418.404
696.183	13402.277
696.312	13337.723
696.440	13453.915
696.568	13328.149
696.696	13274.957
696.824	13113.085
696.952	13084.085
697.080	13025.979
697.208	12972.660
697.337	12972.681
697.465	12884.915
697.593	12800.723
697.721	12790.766
697.849	12723.511
697.977	12639.298
698.105	12640.723
698.233	12522.234
698.362	12498.809
698.490	12483.894
698.618	12445.426
698.746	12444.447
698.874	12332.574
699.002	12481.213
699.130	12204.191
699.258	12163.447
699.387	12038.085
699.515	12054.191
699.643	11982.064
699.771	11982.277
699.899	11898.362
700.027	11886.064
700.155	11760.894
700.283	11742.000
700.412	11692.489
700.540	11580.021
700.668	11595.255
700.796	11549.447
700.924	11453.277
701.052	11417.979
701.180	11453.064
701.308	11324.957
701.437	11168.702
701.565	11163.617
701.693	11100.319
701.821	11048.809
701.949	11047.277
702.077	10976.170
702.205	10865.106
702.333	10856.128
702.462	10744.787
702.590	10749.021
702.718	10622.255
702.846	10574.298
702.974	10510.426
703.102	10538.532
703.230	10563.128
703.358	10453.064
703.487	10300.532
703.615	10503.064
703.743	10237.000
703.871	10166.426
703.999	10139.979
704.127	10208.532
704.255	9975.000
704.383	10123.213
704.512	9898.787
704.640	9864.553
704.768	9724.660
704.896	9793.085
705.024	9637.340
705.152	9771.149
705.280	9595.723
705.408	9479.085
705.537	9475.426
705.665	9441.660
705.793	9328.489
705.921	9298.979
706.049	9251.638
706.177	9153.617
706.305	9155.660
706.433	9216.191
706.562	9057.702
706.690	9026.404
706.818	8959.043
706.946	9098.000
707.074	8907.021
707.202	8820.766
707.330	8854.574
707.458	8753.681
707.587	8702.340
707.715	8626.830
707.843	8643.851
707.971	8617.319
708.099	8585.298
708.227	8492.851
708.355	8436.830
708.483	8365.830
708.612	8314.830
708.740	8322.745
708.868	8352.915
708.996	8193.106
709.124	8238.936
709.252	8180.000
709.380	8081.787
709.508	8132.255
709.637	8015.255
709.765	8018.106
709.893	7993.681
710.021	8009.766
710.149	7920.000
710.277	7942.085
710.405	7797.362
710.533	7810.277
710.662	7759.830
710.790	7752.723
710.918	7734.596
711.046	7682.043
711.174	7660.787
711.302	7655.319
711.430	7712.021
711.558	7487.787
711.687	7547.638
711.815	7536.553
711.943	7471.085
712.071	7484.064
712.199	7470.702
712.327	7383.191
712.455	7339.489
712.583	7378.596
712.712	7316.085
712.840	7291.617
712.968	7247.681
713.096	7287.915
713.224	7131.319
713.352	7156.213
713.480	7142.000
713.608	7085.404
713.737	7095.830
713.865	7115.447
713.993	7068.574
714.121	7030.851
714.249	7006.021
714.377	7026.915
714.505	6969.681
714.633	7097.872
714.762	6926.660
714.890	6866.787
715.018	6872.894
715.146	6841.149
715.274	6881.809
715.402	6965.979
715.530	6848.532
715.658	6726.745
715.787	6704.319
715.915	6847.128
716.043	6633.489
716.171	6706.085
716.299	6710.447
716.427	6630.106
716.555	6617.383
716.683	6561.043
716.812	6517.064
716.940	6523.596
717.068	6401.553
717.196	6604.638
717.324	6542.340
717.452	6417.553
717.580	6371.617
717.708	6343.362
717.837	6398.468
717.965	6284.170
718.093	6279.745
718.221	6233.468
718.349	6286.149
718.477	6252.340
718.605	6221.340
718.733	6128.979
718.862	6129.638
718.990	6088.128
719.118	6086.191
719.246	6020.809
719.374	6083.319
719.502	6000.851
719.630	6130.660
719.758	5905.574
719.887	5891.574
720.015	6048.277
720.143	5847.957
720.271	5851.340
720.399	5852.426
720.527	5839.489
720.655	5826.383
720.783	5814.723
720.912	5661.085
721.040	5683.617
721.168	5642.702
721.296	5679.596
721.424	5594.426
721.552	5526.660
721.680	5513.553
721.808	5498.574
721.937	5462.617
722.065	5591.128
722.193	5535.809
722.321	5412.702
722.449	5387.723
722.577	5338.574
722.705	5312.851
722.833	5318.809
722.962	5272.170
723.090	5208.234
723.218	5155.660
723.346	5188.723
723.474	5137.277
723.602	5253.021
723.730	5205.255
723.858	5246.383
723.987	5106.766
724.115	5095.660
724.243	5010.957
724.371	5016.745
724.499	5022.553
724.627	4895.660
724.755	4875.447
724.883	4868.936
725.012	4848.702
725.140	4859.851
725.268	4825.596
725.396	4739.702
725.524	4726.234
725.652	4764.830
725.780	4673.596
725.908	4764.255
726.037	4782.936
726.165	4621.532
726.293	4601.191
726.421	4538.064
726.549	4514.234
726.677	4543.638
726.805	4506.468
726.933	4436.894
727.062	4491.234
727.190	4494.319
727.318	4380.043
727.446	4411.468
727.574	4389.106
727.702	4486.426
727.830	4329.021
727.958	4366.957
728.087	4309.085
