90pol_70_130_at_750.00nm_cut_at_984.50Y_01.dat
24.04.2023
10:55:07
cut middle at Y: 984.50
top cursor: 1008 down cursor: 961 mean of: 47 lines , 2560 datapoints
wavelength(nm)	intensity[arb. units]
585.996	23951.979
586.124	23245.872
586.252	23072.574
586.380	23190.213
586.508	23192.830
586.637	23383.830
586.765	23400.064
586.893	23524.681
587.021	23514.511
587.149	23576.170
587.277	23606.915
587.405	23734.979
587.533	23687.574
587.662	23913.021
587.790	23938.851
587.918	23876.085
588.046	23968.404
588.174	23852.851
588.302	24064.128
588.430	23913.021
588.558	23981.000
588.687	24096.872
588.815	23973.170
588.943	24062.936
589.071	24077.809
589.199	24176.404
589.327	24167.128
589.455	24115.191
589.583	24247.851
589.712	24251.255
589.840	24250.106
589.968	24256.426
590.096	24336.426
590.224	24326.447
590.352	24371.894
590.480	24317.128
590.608	24393.426
590.737	24519.660
590.865	24473.298
590.993	24433.106
591.121	24533.383
591.249	24603.511
591.377	24532.766
591.505	24683.957
591.633	24641.915
591.762	24677.277
591.890	24870.128
592.018	24706.085
592.146	24839.255
592.274	24812.021
592.402	24930.617
592.530	24949.936
592.658	25221.979
592.787	25019.191
592.915	25252.872
593.043	25201.106
593.171	25347.255
593.299	25510.787
593.427	25457.085
593.555	25581.277
593.683	25593.340
593.812	25740.085
593.940	25707.894
594.068	25832.617
594.196	26071.830
594.324	26110.362
594.452	26072.149
594.580	26252.447
594.708	26373.234
594.837	26405.298
594.965	26516.106
595.093	26714.106
595.221	26703.681
595.349	26843.553
595.477	26911.213
595.605	27009.021
595.733	27044.532
595.862	27378.404
595.990	27184.596
596.118	27328.489
596.246	27499.681
596.374	27454.511
596.502	27544.362
596.630	27633.787
596.758	27709.532
596.887	27832.872
597.015	27824.234
597.143	27848.809
597.271	27905.702
597.399	27914.298
597.527	27980.489
597.655	28071.511
597.783	28018.766
597.912	28057.489
598.040	28072.851
598.168	28056.128
598.296	28121.340
598.424	28134.532
598.552	28124.596
598.680	28132.404
598.808	28221.468
598.937	28169.681
599.065	28106.638
599.193	28171.766
599.321	28221.702
599.449	28153.723
599.577	28145.277
599.705	28218.894
599.833	28317.511
599.962	28254.787
600.090	28277.340
600.218	28385.936
600.346	28338.340
600.474	28483.702
600.602	28484.766
600.730	28617.043
600.858	28641.277
600.987	28808.319
601.115	28771.362
601.243	28867.213
601.371	28922.128
601.499	29124.809
601.627	29184.553
601.755	29250.830
601.883	29416.255
602.012	29472.043
602.140	29519.660
602.268	29769.979
602.396	29863.532
602.524	30037.085
602.652	30103.851
602.780	30221.596
602.908	30289.766
603.037	30458.957
603.165	30543.213
603.293	30714.319
603.421	30817.851
603.549	31005.489
603.677	31182.106
603.805	31285.085
603.933	31506.979
604.062	31734.809
604.190	31810.383
604.318	32037.915
604.446	32079.106
604.574	32316.468
604.702	32446.596
604.830	32531.468
604.958	32682.277
605.087	32865.043
605.215	32921.043
605.343	33065.340
605.471	33197.638
605.599	33370.660
605.727	33406.362
605.855	33608.383
605.983	33625.894
606.112	33790.447
606.240	33790.660
606.368	33869.957
606.496	34071.617
606.624	34090.638
606.752	34191.702
606.880	34299.191
607.008	34444.574
607.137	34359.319
607.265	34278.809
607.393	34329.468
607.521	34534.362
607.649	34450.404
607.777	34438.043
607.905	34493.894
608.033	34509.468
608.162	34468.277
608.290	34573.638
608.418	34462.021
608.546	34639.787
608.674	34581.426
608.802	34555.234
608.930	34569.681
609.058	34591.426
609.187	34683.979
609.315	34719.468
609.443	34663.383
609.571	34718.617
609.699	34616.638
609.827	34746.149
609.955	34721.638
610.083	34706.255
610.212	34760.170
610.340	34709.000
610.468	34898.830
610.596	34928.447
610.724	35008.043
610.852	34909.191
610.980	35053.426
611.108	35083.957
611.237	34997.979
611.365	35117.043
611.493	35167.213
611.621	35295.787
611.749	35386.128
611.877	35539.638
612.005	35512.106
612.133	35714.064
612.262	35745.298
612.390	35883.957
612.518	35918.404
612.646	36172.489
612.774	36255.894
612.902	36393.553
613.030	36523.149
613.158	36820.830
613.287	36851.170
613.415	36821.298
613.543	36815.277
613.671	36951.915
613.799	37033.213
613.927	37111.383
614.055	37147.596
614.183	37440.745
614.312	37400.809
614.440	37524.383
614.568	37598.383
614.696	37803.000
614.824	38029.319
614.952	37939.000
615.080	38210.830
615.208	38298.319
615.337	38467.362
615.465	38599.149
615.593	38804.638
615.721	39016.000
615.849	39111.128
615.977	39224.106
616.105	39274.617
616.233	39305.936
616.362	39291.851
616.490	39575.468
616.618	39654.426
616.746	39785.957
616.874	39792.872
617.002	39774.191
617.130	39835.596
617.258	40012.872
617.387	40092.468
617.515	40101.362
617.643	40185.894
617.771	40219.851
617.899	40283.106
618.027	40300.149
618.155	40388.468
618.283	40414.064
618.412	40461.213
618.540	40598.234
618.668	40682.574
618.796	40798.851
618.924	40916.426
619.052	40888.574
619.180	40981.553
619.308	41019.447
619.437	40966.319
619.565	41040.489
619.693	41052.234
619.821	41074.723
619.949	41137.128
620.077	41347.532
620.205	41325.383
620.333	41365.681
620.462	41526.723
620.590	41456.979
620.718	41485.723
620.846	41468.000
620.974	41563.596
621.102	41688.404
621.230	41664.277
621.358	41758.106
621.487	41759.043
621.615	41679.106
621.743	41859.702
621.871	41800.085
621.999	41933.830
622.127	41908.489
622.255	41925.617
622.383	41956.957
622.512	41965.298
622.640	42137.426
622.768	41985.319
622.896	41978.787
623.024	42041.170
623.152	42140.979
623.280	42066.660
623.408	41961.638
623.537	42099.638
623.665	42090.702
623.793	42143.106
623.921	42050.532
624.049	42080.660
624.177	42032.553
624.305	42204.340
624.433	42154.213
624.562	42246.234
624.690	42164.277
624.818	42249.915
624.946	42378.234
625.074	42207.468
625.202	42295.681
625.330	42151.021
625.458	42220.574
625.587	42313.809
625.715	42300.723
625.843	42497.362
625.971	42329.234
626.099	42418.106
626.227	42394.723
626.355	42256.489
626.483	42522.404
626.612	42544.489
626.740	42481.149
626.868	42596.149
626.996	42636.128
627.124	42688.447
627.252	42612.340
627.380	42771.426
627.508	42787.128
627.637	42785.213
627.765	42901.404
627.893	43056.021
628.021	43024.085
628.149	43332.957
628.277	43367.191
628.405	43484.915
628.533	43245.979
628.662	43323.851
628.790	43328.936
628.918	43495.468
629.046	43540.872
629.174	43773.191
629.302	44084.149
629.430	44000.553
629.558	43957.766
629.687	44008.383
629.815	44057.298
629.943	44132.149
630.071	44163.255
630.199	44321.447
630.327	44298.149
630.455	44490.872
630.583	44514.319
630.712	44482.915
630.840	44645.745
630.968	44647.787
631.096	44606.723
631.224	44719.957
631.352	44738.043
631.480	44884.085
631.608	44922.000
631.737	44979.957
631.865	45086.447
631.993	45032.936
632.121	45164.340
632.249	45153.532
632.377	45165.255
632.505	45156.362
632.633	45066.447
632.762	45039.234
632.890	45131.745
633.018	45006.830
633.146	45231.511
633.274	44991.702
633.402	45057.617
633.530	44979.298
633.658	45097.404
633.787	44922.213
633.915	44946.936
634.043	44840.681
634.171	44944.447
634.299	44801.404
634.427	44886.915
634.555	44752.745
634.683	44769.596
634.812	44682.489
634.940	44647.149
635.068	44594.574
635.196	44541.426
635.324	44524.660
635.452	44513.617
635.580	44376.532
635.708	44263.745
635.837	44324.787
635.965	44333.809
636.093	44110.532
636.221	44174.362
636.349	44078.787
636.477	43931.128
636.605	44138.234
636.733	43771.085
636.862	43736.468
636.990	43782.468
637.118	43704.596
637.246	43648.128
637.374	43537.255
637.502	43529.085
637.630	43418.489
637.758	43358.702
637.887	43338.532
638.015	43174.298
638.143	43261.468
638.271	43073.426
638.399	43119.809
638.527	43057.043
638.655	42999.234
638.783	43063.255
638.912	43091.426
639.040	42985.511
639.168	42943.872
639.296	42815.106
639.424	42935.298
639.552	42692.766
639.680	43035.085
639.808	42741.723
639.937	42781.660
640.065	42700.234
640.193	42687.128
640.321	42657.596
640.449	42665.851
640.577	42701.255
640.705	42720.426
640.833	42826.553
640.962	42595.468
641.090	42576.277
641.218	42568.574
641.346	42562.234
641.474	42533.021
641.602	42551.021
641.730	42602.936
641.858	42691.723
641.987	42657.872
642.115	42636.085
642.243	42604.234
642.371	42625.851
642.499	42489.447
642.627	42636.723
642.755	42683.255
642.883	42682.915
643.012	42664.191
643.140	42630.298
643.268	42501.979
643.396	42554.021
643.524	42654.787
643.652	42645.128
643.780	42576.809
643.908	42626.574
644.037	42602.043
644.165	42558.128
644.293	42535.234
644.421	42670.894
644.549	42583.362
644.677	42584.702
644.805	42374.723
644.933	42310.809
645.062	42383.681
645.190	42275.830
645.318	42396.277
645.446	42168.106
645.574	42307.638
645.702	42182.340
645.830	42279.596
645.958	42009.149
646.087	42163.298
646.215	41898.830
646.343	42036.000
646.471	41748.128
646.599	41779.468
646.727	41733.723
646.855	41727.766
646.983	41676.511
647.112	41505.660
647.240	41590.936
647.368	41360.255
647.496	41414.149
647.624	41346.213
647.752	41124.787
647.880	41142.277
648.008	41075.723
648.137	41003.298
648.265	40883.277
648.393	40957.532
648.521	40816.979
648.649	40694.064
648.777	40633.085
648.905	40375.404
649.033	40295.809
649.162	40211.915
649.290	40128.277
649.418	39982.617
649.546	39989.383
649.674	39825.085
649.802	39617.894
649.930	39777.787
650.058	39455.936
650.187	39388.936
650.315	39327.532
650.443	39268.957
650.571	39118.872
650.699	39057.149
650.827	38919.021
650.955	38780.043
651.083	38734.809
651.212	38719.426
651.340	38623.596
651.468	38527.170
651.596	38384.064
651.724	38278.319
651.852	38170.149
651.980	38001.404
652.108	37984.404
652.237	37917.149
652.365	37859.149
652.493	37805.170
652.621	37644.085
652.749	37676.170
652.877	37468.277
653.005	37323.532
653.133	37243.681
653.262	37158.170
653.390	37069.957
653.518	37010.319
653.646	36992.745
653.774	37042.319
653.902	36682.255
654.030	36743.532
654.158	36583.553
654.287	36467.362
654.415	36357.170
654.543	36441.085
654.671	36171.660
654.799	36157.851
654.927	35941.809
655.055	35852.660
655.183	35831.596
655.312	35608.191
655.440	35617.511
655.568	35501.872
655.696	35391.213
655.824	35454.106
655.952	35240.319
656.080	35068.894
656.208	35126.255
656.337	34845.617
656.465	34874.064
656.593	34701.915
656.721	34477.213
656.849	34493.191
656.977	34321.596
657.105	34230.404
657.233	34078.170
657.362	33996.915
657.490	33858.532
657.618	33814.362
657.746	33738.170
657.874	33536.574
658.002	33439.426
658.130	33326.128
658.258	33141.894
658.387	33181.809
658.515	33020.638
658.643	32909.787
658.771	32816.319
658.899	32724.723
659.027	32634.468
659.155	32480.277
659.283	32485.255
659.412	32333.596
659.540	32261.213
659.668	32027.532
659.796	32005.255
659.924	31920.617
660.052	31812.979
660.180	31671.043
660.308	31611.596
660.437	31504.745
660.565	31434.255
660.693	31298.553
660.821	31196.532
660.949	31121.766
661.077	31028.851
661.205	31001.936
661.333	30863.915
661.462	30860.447
661.590	30653.532
661.718	30639.404
661.846	30449.553
661.974	30550.660
662.102	30263.894
662.230	30163.319
662.358	30053.064
662.487	30045.617
662.615	29910.191
662.743	29878.447
662.871	29822.298
662.999	29730.681
663.127	29594.532
663.255	29648.426
663.383	29520.128
663.512	29400.638
663.640	29426.340
663.768	29371.915
663.896	29352.234
664.024	29282.000
664.152	29215.426
664.280	29293.170
664.408	29188.277
664.537	29148.170
664.665	29006.936
664.793	28889.872
664.921	28808.660
665.049	28815.468
665.177	28753.213
665.305	28725.809
665.433	28565.106
665.562	28555.809
665.690	28452.809
665.818	28560.532
665.946	28431.830
666.074	28330.638
666.202	28253.553
666.330	28215.277
666.458	28129.787
666.587	28047.809
666.715	27980.213
666.843	27928.809
666.971	27900.979
667.099	27837.234
667.227	27795.681
667.355	27691.106
667.483	27668.596
667.612	27546.000
667.740	27567.787
667.868	27545.787
667.996	27444.191
668.124	27290.511
668.252	27270.660
668.380	27225.936
668.508	27113.830
668.637	27037.085
668.765	27007.234
668.893	26858.681
669.021	26827.936
669.149	26762.681
669.277	26715.234
669.405	26538.872
669.533	26583.894
669.662	26724.340
669.790	26432.489
669.918	26361.362
670.046	26168.809
670.174	26160.000
670.302	26052.170
670.430	25883.106
670.558	25841.511
670.687	25678.851
670.815	25696.766
670.943	25501.298
671.071	25355.021
671.199	25335.021
671.327	25183.957
671.455	25125.447
671.583	25048.149
671.712	25042.170
671.840	24909.340
671.968	24624.660
672.096	24576.170
672.224	24480.851
672.352	24473.681
672.480	24235.617
672.608	24109.149
672.737	23977.489
672.865	24048.638
672.993	23814.979
673.121	23689.936
673.249	23495.723
673.377	23431.936
673.505	23313.213
673.633	23178.234
673.762	23107.383
673.890	22983.766
674.018	23168.979
674.146	22821.872
674.274	22704.936
674.402	22762.617
674.530	22434.447
674.658	22428.915
674.787	22337.936
674.915	22097.851
675.043	22166.043
675.171	22026.851
675.299	21853.362
675.427	21806.277
675.555	21678.064
675.683	21568.255
675.812	21438.043
675.940	21423.681
676.068	21271.404
676.196	21179.383
676.324	21067.128
676.452	20972.894
676.580	20841.234
676.708	20819.745
676.837	20702.468
676.965	20582.532
677.093	20444.149
677.221	20391.745
677.349	20324.830
677.477	20214.298
677.605	20060.872
677.733	20004.787
677.862	19820.787
677.990	19773.170
678.118	19646.426
678.246	19631.021
678.374	19593.596
678.502	19406.979
678.630	19345.915
678.758	19227.277
678.887	19147.766
679.015	19041.489
679.143	19053.362
679.271	18861.383
679.399	18794.191
679.527	18718.681
679.655	18649.340
679.783	18642.830
679.912	18530.085
680.040	18448.426
680.168	18355.340
680.296	18301.000
680.424	18134.809
680.552	18133.574
680.680	18159.681
680.808	18027.426
680.937	17932.213
681.065	17821.362
681.193	17762.511
681.321	17801.787
681.449	17693.213
681.577	17564.553
681.705	17539.745
681.833	17532.149
681.962	17414.468
682.090	17549.468
682.218	17271.851
682.346	17208.638
682.474	17196.170
682.602	17148.255
682.730	17131.128
682.858	17001.447
682.987	17026.745
683.115	16978.957
683.243	16831.617
683.371	16806.830
683.499	16832.362
683.627	16747.277
683.755	16738.702
683.883	16782.319
684.012	16614.255
684.140	16511.489
684.268	16412.979
684.396	16419.000
684.524	16417.957
684.652	16400.298
684.780	16335.936
684.908	16304.702
685.037	16135.447
685.165	16056.681
685.293	16018.000
685.421	16106.532
685.549	15892.447
685.677	15862.638
685.805	15942.383
685.933	15845.596
686.062	15739.298
686.190	15626.617
686.318	15634.468
686.446	15543.426
686.574	15453.936
686.702	15501.702
686.830	15414.085
686.958	15278.638
687.087	15316.128
687.215	15251.170
687.343	15124.043
687.471	15106.617
687.599	14997.511
687.727	15149.255
687.855	14954.936
687.983	14956.745
688.112	14883.383
688.240	14739.723
688.368	14688.064
688.496	14725.255
688.624	14609.213
688.752	14510.851
688.880	14532.128
689.008	14432.106
689.137	14377.553
689.265	14320.872
689.393	14216.468
689.521	14163.681
689.649	14148.830
689.777	14037.745
689.905	13995.234
690.033	13954.128
690.162	13908.745
690.290	13798.191
690.418	13765.809
690.546	13808.936
690.674	13691.787
690.802	13537.489
690.930	13530.702
691.058	13477.957
691.187	13362.000
691.315	13323.021
691.443	13378.085
691.571	13253.511
691.699	13229.511
691.827	13160.362
691.955	13109.149
692.083	13026.255
692.212	13087.362
692.340	12905.723
692.468	12842.745
692.596	12800.957
692.724	12840.191
692.852	12656.660
692.980	12687.979
693.108	12572.149
693.237	12445.277
693.365	12402.660
693.493	12329.021
693.621	12304.511
693.749	12244.681
693.877	12191.702
694.005	12199.447
694.133	12113.085
694.262	12075.319
694.390	11915.574
694.518	11939.383
694.646	11856.830
694.774	11847.830
694.902	11952.128
695.030	11812.574
695.158	11626.000
695.287	11659.872
695.415	11588.021
695.543	11523.553
695.671	11562.766
695.799	11456.340
695.927	11412.723
696.055	11328.362
696.183	11289.319
696.312	11216.404
696.440	11326.128
696.568	11213.128
696.696	11192.872
696.824	10984.723
696.952	11012.191
697.080	10962.362
697.208	10894.979
697.337	10901.660
697.465	10800.723
697.593	10745.404
697.721	10652.787
697.849	10641.000
697.977	10600.426
698.105	10549.617
698.233	10444.830
698.362	10472.766
698.490	10426.298
698.618	10368.340
698.746	10435.447
698.874	10257.128
699.002	10403.638
699.130	10145.085
699.258	10160.468
699.387	10090.596
699.515	10055.915
699.643	10015.723
699.771	9992.979
699.899	9894.426
700.027	9873.000
700.155	9807.809
700.283	9738.383
700.412	9772.851
700.540	9641.745
700.668	9632.723
700.796	9504.617
700.924	9508.894
701.052	9416.979
701.180	9537.915
701.308	9417.383
701.437	9229.936
701.565	9201.319
701.693	9170.149
701.821	9144.809
701.949	9130.043
702.077	9103.979
702.205	9000.213
702.333	8961.191
702.462	8871.149
702.590	8879.149
702.718	8772.255
702.846	8701.170
702.974	8686.532
703.102	8699.830
703.230	8684.830
703.358	8608.021
703.487	8447.766
703.615	8591.191
703.743	8388.872
703.871	8348.255
703.999	8325.638
704.127	8357.106
704.255	8129.872
704.383	8320.872
704.512	8120.936
704.640	8068.213
704.768	7979.064
704.896	8006.936
705.024	7861.106
705.152	7933.383
705.280	7779.596
705.408	7760.766
705.537	7721.766
705.665	7636.511
705.793	7604.191
705.921	7478.128
706.049	7505.723
706.177	7448.872
706.305	7395.043
706.433	7486.936
706.562	7337.894
706.690	7287.809
706.818	7226.979
706.946	7414.043
707.074	7187.681
707.202	7130.851
707.330	7134.426
707.458	7021.979
707.587	6947.191
707.715	6924.447
707.843	6955.660
707.971	6917.787
708.099	6928.000
708.227	6812.277
708.355	6767.702
708.483	6716.702
708.612	6665.723
708.740	6667.489
708.868	6690.617
708.996	6604.830
709.124	6589.106
709.252	6529.064
709.380	6467.043
709.508	6487.213
709.637	6372.255
709.765	6369.745
709.893	6378.894
710.021	6312.383
710.149	6279.362
710.277	6315.723
710.405	6185.404
710.533	6208.915
710.662	6155.340
710.790	6142.489
710.918	6116.809
711.046	6067.319
711.174	6045.468
711.302	6032.191
711.430	6065.340
711.558	5907.404
711.687	5914.894
711.815	5909.489
711.943	5846.957
712.071	5882.085
712.199	5880.447
712.327	5828.277
712.455	5754.085
712.583	5744.340
712.712	5687.191
712.840	5705.723
712.968	5669.021
713.096	5688.404
713.224	5625.723
713.352	5615.340
713.480	5530.489
713.608	5571.170
713.737	5522.702
713.865	5491.404
713.993	5531.532
714.121	5440.000
714.249	5430.745
714.377	5489.021
714.505	5401.298
714.633	5513.426
714.762	5398.979
714.890	5308.723
715.018	5345.404
715.146	5274.255
715.274	5324.511
715.402	5395.021
715.530	5303.170
715.658	5191.255
715.787	5152.319
715.915	5327.085
716.043	5123.021
716.171	5148.915
716.299	5156.957
716.427	5101.277
716.555	5049.574
716.683	4999.447
716.812	5029.000
716.940	5005.064
717.068	4897.383
717.196	5075.191
717.324	4999.936
717.452	4905.191
717.580	4829.106
717.708	4811.553
717.837	4873.957
717.965	4744.277
718.093	4744.277
718.221	4706.447
718.349	4728.745
718.477	4728.128
718.605	4741.809
718.733	4671.404
718.862	4646.660
718.990	4583.234
719.118	4578.489
719.246	4499.766
719.374	4603.234
719.502	4551.021
719.630	4655.957
719.758	4459.170
719.887	4433.468
720.015	4604.489
720.143	4352.553
720.271	4348.511
720.399	4392.064
720.527	4382.447
720.655	4374.000
720.783	4366.043
720.912	4264.532
721.040	4248.191
721.168	4196.574
721.296	4232.638
721.424	4175.872
721.552	4098.851
721.680	4099.426
721.808	4123.745
721.937	4077.404
722.065	4163.553
722.193	4139.085
722.321	4008.702
722.449	3974.000
722.577	3949.809
722.705	3912.702
722.833	3931.830
722.962	3927.787
723.090	3824.638
723.218	3801.468
723.346	3789.489
723.474	3752.064
723.602	3884.915
723.730	3809.000
723.858	3890.915
723.987	3760.021
724.115	3777.553
724.243	3667.468
724.371	3681.596
724.499	3693.638
724.627	3564.936
724.755	3576.404
724.883	3538.213
725.012	3562.915
725.140	3556.106
725.268	3520.766
725.396	3411.787
725.524	3404.745
725.652	3439.745
725.780	3388.723
725.908	3454.596
726.037	3534.660
726.165	3350.404
726.293	3293.255
726.421	3300.511
726.549	3251.340
726.677	3276.979
726.805	3243.511
726.933	3173.787
727.062	3250.787
727.190	3199.170
727.318	3114.681
727.446	3145.915
727.574	3109.617
727.702	3227.404
727.830	3073.404
727.958	3146.915
728.087	3056.681
728.215	3160.362
728.343	3133.149
