90pol_90_120_at_750.00nm_cut_at_984.50Y_01.dat
24.04.2023
10:44:18
cut middle at Y: 984.50
top cursor: 1008 down cursor: 961 mean of: 47 lines , 2560 datapoints
wavelength(nm)	intensity[arb. units]
585.996	19087.660
586.124	18578.723
586.252	18398.702
586.380	18379.000
586.508	18475.787
586.637	18505.745
586.765	18520.489
586.893	18610.277
587.021	18577.809
587.149	18708.511
587.277	18659.064
587.405	18752.128
587.533	18727.043
587.662	18876.936
587.790	18854.723
587.918	18706.787
588.046	18771.723
588.174	18733.702
588.302	18835.617
588.430	18784.617
588.558	18742.681
588.687	18791.340
588.815	18765.170
588.943	18807.936
589.071	18782.660
589.199	18884.426
589.327	18797.021
589.455	18765.766
589.583	18855.298
589.712	18845.340
589.840	18825.894
589.968	18747.404
590.096	18798.362
590.224	18866.809
590.352	18771.000
590.480	18724.851
590.608	18787.617
590.737	18802.511
590.865	18767.660
590.993	18747.447
591.121	18822.426
591.249	18854.915
591.377	18845.511
591.505	18790.362
591.633	18852.702
591.762	18801.277
591.890	19020.702
592.018	18813.021
592.146	18846.681
592.274	18889.766
592.402	18917.553
592.530	18882.894
592.658	19203.340
592.787	18983.936
592.915	19133.043
593.043	19119.489
593.171	19095.362
593.299	19183.702
593.427	19200.000
593.555	19196.766
593.683	19291.319
593.812	19352.128
593.940	19389.191
594.068	19375.468
594.196	19519.915
594.324	19582.085
594.452	19589.489
594.580	19658.809
594.708	19699.574
594.837	19640.872
594.965	19816.894
595.093	19859.681
595.221	19874.043
595.349	20054.298
595.477	20018.021
595.605	20023.489
595.733	19993.489
595.862	20271.979
595.990	20120.234
596.118	20194.596
596.246	20388.851
596.374	20293.489
596.502	20332.872
596.630	20408.021
596.758	20354.128
596.887	20407.532
597.015	20457.809
597.143	20439.277
597.271	20497.532
597.399	20582.532
597.527	20430.830
597.655	20519.426
597.783	20550.894
597.912	20488.872
598.040	20529.766
598.168	20551.128
598.296	20549.872
598.424	20499.128
598.552	20578.830
598.680	20484.468
598.808	20600.021
598.937	20549.085
599.065	20482.660
599.193	20559.000
599.321	20523.383
599.449	20484.830
599.577	20421.957
599.705	20425.723
599.833	20502.085
599.962	20441.787
600.090	20562.000
600.218	20575.426
600.346	20520.638
600.474	20611.638
600.602	20552.489
600.730	20583.277
600.858	20696.851
600.987	20805.872
601.115	20689.106
601.243	20778.404
601.371	20803.234
601.499	20890.064
601.627	20966.681
601.755	20970.702
601.883	21104.043
602.012	21176.000
602.140	21169.106
602.268	21318.106
602.396	21314.021
602.524	21455.723
602.652	21433.106
602.780	21568.404
602.908	21597.468
603.037	21633.319
603.165	21754.809
603.293	21805.894
603.421	21907.426
603.549	21946.596
603.677	22119.915
603.805	22145.617
603.933	22285.851
604.062	22373.872
604.190	22484.766
604.318	22498.085
604.446	22607.447
604.574	22690.787
604.702	22806.234
604.830	22902.128
604.958	22935.021
605.087	23125.362
605.215	23083.766
605.343	23220.915
605.471	23291.234
605.599	23355.745
605.727	23359.915
605.855	23456.936
605.983	23515.255
606.112	23598.064
606.240	23591.596
606.368	23606.383
606.496	23855.957
606.624	23669.255
606.752	23754.660
606.880	23850.809
607.008	23942.553
607.137	23911.064
607.265	23771.170
607.393	23824.574
607.521	23884.702
607.649	23802.979
607.777	23817.702
607.905	23828.362
608.033	23809.617
608.162	23777.213
608.290	23765.979
608.418	23687.277
608.546	23761.787
608.674	23717.681
608.802	23713.979
608.930	23681.234
609.058	23726.234
609.187	23780.106
609.315	23773.085
609.443	23751.723
609.571	23825.915
609.699	23718.191
609.827	23805.468
609.955	23742.000
610.083	23703.319
610.212	23695.489
610.340	23734.319
610.468	23845.191
610.596	23821.404
610.724	23831.383
610.852	23841.340
610.980	23739.447
611.108	23881.085
611.237	23744.362
611.365	23934.319
611.493	23834.191
611.621	23968.489
611.749	24043.787
611.877	24129.489
612.005	24112.617
612.133	24272.596
612.262	24295.255
612.390	24316.872
612.518	24356.745
612.646	24554.638
612.774	24385.830
612.902	24641.936
613.030	24780.872
613.158	24972.787
613.287	24920.255
613.415	24880.851
613.543	24895.511
613.671	24857.936
613.799	25039.362
613.927	24964.489
614.055	25025.383
614.183	25209.021
614.312	25148.851
614.440	25312.872
614.568	25225.255
614.696	25430.979
614.824	25618.021
614.952	25608.447
615.080	25624.745
615.208	25752.383
615.337	25769.809
615.465	25914.745
615.593	26014.979
615.721	26266.957
615.849	26344.532
615.977	26377.574
616.105	26384.489
616.233	26397.596
616.362	26446.319
616.490	26410.489
616.618	26498.787
616.746	26563.979
616.874	26619.851
617.002	26626.979
617.130	26700.213
617.258	26795.596
617.387	26709.830
617.515	26786.936
617.643	26788.021
617.771	26765.915
617.899	26795.213
618.027	26792.915
618.155	26916.660
618.283	26896.404
618.412	26915.404
618.540	26950.426
618.668	26951.468
618.796	26916.872
618.924	27154.787
619.052	26973.277
619.180	27071.979
619.308	27103.851
619.437	27095.851
619.565	27023.255
619.693	27034.915
619.821	27141.936
619.949	27114.426
620.077	27231.085
620.205	27169.574
620.333	27219.213
620.462	27244.787
620.590	27271.851
620.718	27165.489
620.846	27202.319
620.974	27226.957
621.102	27249.191
621.230	27249.894
621.358	27294.404
621.487	27170.213
621.615	27286.766
621.743	27346.979
621.871	27281.191
621.999	27379.979
622.127	27301.532
622.255	27368.213
622.383	27376.404
622.512	27251.638
622.640	27499.298
622.768	27321.894
622.896	27303.638
623.024	27387.660
623.152	27456.574
623.280	27434.468
623.408	27321.404
623.537	27399.319
623.665	27393.340
623.793	27423.894
623.921	27410.660
624.049	27337.255
624.177	27382.255
624.305	27484.000
624.433	27449.894
624.562	27569.277
624.690	27513.702
624.818	27515.447
624.946	27606.319
625.074	27508.915
625.202	27436.149
625.330	27437.702
625.458	27522.234
625.587	27408.085
625.715	27511.936
625.843	27573.021
625.971	27538.170
626.099	27490.234
626.227	27458.085
626.355	27410.043
626.483	27620.851
626.612	27542.915
626.740	27525.489
626.868	27634.681
626.996	27633.638
627.124	27609.277
627.252	27602.681
627.380	27732.617
627.508	27839.596
627.637	27680.000
627.765	27778.936
627.893	27862.894
628.021	27908.234
628.149	28143.553
628.277	28330.383
628.405	28253.936
628.533	27987.128
628.662	28014.553
628.790	28099.340
628.918	28094.574
629.046	28239.106
629.174	28530.106
629.302	28653.234
629.430	28506.723
629.558	28401.511
629.687	28476.191
629.815	28520.766
629.943	28631.957
630.071	28706.957
630.199	28686.766
630.327	28750.106
630.455	28875.489
630.583	28942.064
630.712	28916.723
630.840	29042.106
630.968	29019.787
631.096	29084.064
631.224	29062.723
631.352	29071.809
631.480	29097.128
631.608	29181.426
631.737	29288.149
631.865	29377.128
631.993	29275.149
632.121	29420.362
632.249	29342.915
632.377	29343.809
632.505	29339.872
632.633	29234.085
632.762	29315.745
632.890	29369.255
633.018	29232.766
633.146	29455.255
633.274	29272.745
633.402	29308.638
633.530	29259.851
633.658	29460.149
633.787	29323.638
633.915	29344.447
634.043	29198.383
634.171	29165.340
634.299	29185.766
634.427	29269.681
634.555	29151.702
634.683	29009.362
634.812	29043.936
634.940	28976.468
635.068	29044.574
635.196	28978.319
635.324	28924.553
635.452	28994.404
635.580	28980.128
635.708	28937.660
635.837	28915.468
635.965	28757.660
636.093	28724.915
636.221	28727.277
636.349	28707.894
636.477	28603.383
636.605	28799.277
636.733	28521.957
636.862	28552.085
636.990	28512.830
637.118	28474.277
637.246	28456.809
637.374	28381.851
637.502	28417.553
637.630	28330.723
637.758	28286.809
637.887	28238.064
638.015	28234.660
638.143	28234.957
638.271	28197.362
638.399	28174.191
638.527	28183.766
638.655	28201.745
638.783	28237.043
638.912	28195.404
639.040	28073.894
639.168	28177.894
639.296	28122.255
639.424	28281.936
639.552	28066.340
639.680	28261.234
639.808	28180.383
639.937	28102.745
640.065	28095.064
640.193	28196.766
640.321	28105.000
640.449	28108.766
640.577	28161.362
640.705	28037.745
640.833	28167.404
640.962	28041.681
641.090	28064.723
641.218	28107.213
641.346	28194.617
641.474	28172.766
641.602	28152.702
641.730	28225.255
641.858	28177.766
641.987	28316.340
642.115	28247.596
642.243	28367.894
642.371	28290.489
642.499	28349.383
642.627	28372.894
642.755	28448.298
642.883	28469.404
643.012	28493.957
643.140	28480.404
643.268	28448.404
643.396	28563.766
643.524	28620.532
643.652	28516.617
643.780	28529.936
643.908	28594.596
644.037	28624.085
644.165	28611.255
644.293	28612.681
644.421	28686.468
644.549	28805.723
644.677	28674.426
644.805	28754.213
644.933	28709.638
645.062	28728.298
645.190	28696.277
645.318	28698.830
645.446	28680.128
645.574	28654.553
645.702	28668.468
645.830	28779.830
645.958	28625.447
646.087	28864.383
646.215	28605.957
646.343	28771.085
646.471	28630.830
646.599	28691.170
646.727	28499.553
646.855	28601.809
646.983	28653.574
647.112	28535.255
647.240	28645.830
647.368	28520.234
647.496	28556.979
647.624	28472.638
647.752	28406.936
647.880	28393.553
648.008	28397.617
648.137	28371.617
648.265	28266.596
648.393	28346.170
648.521	28197.106
648.649	28169.255
648.777	28191.638
648.905	28133.957
649.033	28059.617
649.162	28001.979
649.290	28079.277
649.418	27893.191
649.546	27898.596
649.674	27861.660
649.802	27750.106
649.930	27899.702
650.058	27753.191
650.187	27658.128
650.315	27593.021
650.443	27650.872
650.571	27566.191
650.699	27550.915
650.827	27527.213
650.955	27443.000
651.083	27431.298
651.212	27464.085
651.340	27469.511
651.468	27336.830
651.596	27281.532
651.724	27303.617
651.852	27167.851
651.980	27181.660
652.108	27197.213
652.237	27147.085
652.365	27236.553
652.493	27013.809
652.621	27065.170
652.749	27119.149
652.877	26960.319
653.005	26967.809
653.133	26961.979
653.262	26915.149
653.390	26816.255
653.518	26839.745
653.646	26789.851
653.774	26966.660
653.902	26828.511
654.030	26777.745
654.158	26737.064
654.287	26625.191
654.415	26613.872
654.543	26686.447
654.671	26518.681
654.799	26587.340
654.927	26515.234
655.055	26433.511
655.183	26472.191
655.312	26386.872
655.440	26408.000
655.568	26310.362
655.696	26352.660
655.824	26353.979
655.952	26305.766
656.080	26145.830
656.208	26270.745
656.337	26096.404
656.465	26099.064
656.593	26041.872
656.721	25915.468
656.849	25934.617
656.977	25807.489
657.105	25804.085
657.233	25770.851
657.362	25721.468
657.490	25620.787
657.618	25624.553
657.746	25542.532
657.874	25480.915
658.002	25471.574
658.130	25419.021
658.258	25343.638
658.387	25297.787
658.515	25182.723
658.643	25193.000
658.771	25124.511
658.899	25182.255
659.027	25078.383
659.155	25106.511
659.283	25143.638
659.412	24912.830
659.540	24982.851
659.668	24842.213
659.796	24776.149
659.924	24864.596
660.052	24728.234
660.180	24707.191
660.308	24655.021
660.437	24676.170
660.565	24574.851
660.693	24543.936
660.821	24489.851
660.949	24445.894
661.077	24488.191
661.205	24446.043
661.333	24435.702
661.462	24456.298
661.590	24308.745
661.718	24452.468
661.846	24284.043
661.974	24410.617
662.102	24225.894
662.230	24160.553
662.358	24133.000
662.487	24144.383
662.615	24098.362
662.743	24039.170
662.871	24027.957
662.999	23984.213
663.127	24030.255
663.255	24088.426
663.383	23953.170
663.512	23922.085
663.640	24067.702
663.768	23952.553
663.896	24003.298
664.024	23975.766
664.152	23964.617
664.280	24037.915
664.408	23939.000
664.537	24013.936
664.665	23908.000
664.793	23758.085
664.921	23781.957
665.049	23891.340
665.177	23843.064
665.305	23825.830
665.433	23813.106
665.562	23809.043
665.690	23703.553
665.818	23921.362
665.946	23709.000
666.074	23682.553
666.202	23678.830
666.330	23800.596
666.458	23644.404
666.587	23648.447
666.715	23684.106
666.843	23625.128
666.971	23565.574
667.099	23619.319
667.227	23581.021
667.355	23482.787
667.483	23515.574
667.612	23551.723
667.740	23472.319
667.868	23549.723
667.996	23471.915
668.124	23443.660
668.252	23404.745
668.380	23411.574
668.508	23397.511
668.637	23318.511
668.765	23237.957
668.893	23282.255
669.021	23162.766
669.149	23176.745
669.277	23201.298
669.405	23097.128
669.533	23115.191
669.662	23378.170
669.790	23070.660
669.918	23075.319
670.046	22994.298
670.174	22967.915
670.302	22910.723
670.430	22815.255
670.558	22815.468
670.687	22669.681
670.815	22809.681
670.943	22641.383
671.071	22575.872
671.199	22583.809
671.327	22477.872
671.455	22372.809
671.583	22300.574
671.712	22453.574
671.840	22376.957
671.968	22211.383
672.096	22127.404
672.224	22067.660
672.352	22137.872
672.480	21958.362
672.608	21859.043
672.737	21767.830
672.865	21933.638
672.993	21703.000
673.121	21592.915
673.249	21537.085
673.377	21477.170
673.505	21387.723
673.633	21350.277
673.762	21217.979
673.890	21181.234
674.018	21360.149
674.146	21080.745
674.274	21008.255
674.402	21139.489
674.530	20908.957
674.658	20856.404
674.787	20757.957
674.915	20700.128
675.043	20725.064
675.171	20595.426
675.299	20510.830
675.427	20474.383
675.555	20326.617
675.683	20284.319
675.812	20264.319
675.940	20160.128
676.068	20115.957
676.196	19999.383
676.324	19988.957
676.452	19884.851
676.580	19808.298
676.708	19770.468
676.837	19734.681
676.965	19670.957
677.093	19586.702
677.221	19539.213
677.349	19533.128
677.477	19484.702
677.605	19379.617
677.733	19365.660
677.862	19170.213
677.990	19153.468
678.118	19101.043
678.246	19067.064
678.374	19012.064
678.502	18845.766
678.630	18889.426
678.758	18862.128
678.887	18779.149
679.015	18715.596
679.143	18659.553
679.271	18606.617
679.399	18629.936
679.527	18524.362
679.655	18425.234
679.783	18464.617
679.912	18424.213
680.040	18374.426
680.168	18293.915
680.296	18289.234
680.424	18172.426
680.552	18203.745
680.680	18239.979
680.808	18093.915
680.937	17991.638
681.065	17937.085
681.193	17979.702
681.321	18005.000
681.449	17934.638
681.577	17884.213
681.705	17840.426
681.833	17806.255
681.962	17757.085
682.090	17886.532
682.218	17725.809
682.346	17681.191
682.474	17653.851
682.602	17600.149
682.730	17608.128
682.858	17526.617
682.987	17643.362
683.115	17535.723
683.243	17513.681
683.371	17463.553
683.499	17447.383
683.627	17452.511
683.755	17455.277
683.883	17521.277
684.012	17331.489
684.140	17261.851
684.268	17228.021
684.396	17237.170
684.524	17245.830
684.652	17308.872
684.780	17221.617
684.908	17176.064
685.037	17102.936
685.165	17040.894
685.293	17054.766
685.421	17074.660
685.549	16976.447
685.677	16903.404
685.805	17006.511
685.933	16920.617
686.062	16797.340
686.190	16803.106
686.318	16781.894
686.446	16706.383
686.574	16642.851
686.702	16743.596
686.830	16583.149
686.958	16521.979
687.087	16499.596
687.215	16518.383
687.343	16406.532
687.471	16364.809
687.599	16288.298
687.727	16510.894
687.855	16282.872
687.983	16310.532
688.112	16317.596
688.240	16130.617
688.368	16135.362
688.496	16087.043
688.624	16125.149
688.752	15984.319
688.880	15982.617
689.008	15936.000
689.137	15938.553
689.265	15798.511
689.393	15773.979
689.521	15674.787
689.649	15688.553
689.777	15655.979
689.905	15585.447
690.033	15549.362
690.162	15508.319
690.290	15446.511
690.418	15442.043
690.546	15505.809
690.674	15368.489
690.802	15309.128
690.930	15287.532
691.058	15227.596
691.187	15164.809
691.315	15105.660
691.443	15155.851
691.571	15032.191
691.699	15033.404
691.827	15018.681
691.955	14884.723
692.083	14859.128
692.212	14937.021
692.340	14769.319
692.468	14765.936
692.596	14718.830
692.724	14846.404
692.852	14676.809
692.980	14690.787
693.108	14579.553
693.237	14516.936
693.365	14432.404
693.493	14400.383
693.621	14379.085
693.749	14305.468
693.877	14270.255
694.005	14373.617
694.133	14199.766
694.262	14175.255
694.390	14103.043
694.518	14087.383
694.646	14035.000
694.774	14028.447
694.902	14101.128
695.030	13994.170
695.158	13838.660
695.287	13852.149
695.415	13770.915
695.543	13689.979
695.671	13833.234
695.799	13729.128
695.927	13647.426
696.055	13586.319
696.183	13509.766
696.312	13558.319
696.440	13675.915
696.568	13509.255
696.696	13508.979
696.824	13388.255
696.952	13321.830
697.080	13290.426
697.208	13165.936
697.337	13230.085
697.465	13154.979
697.593	13049.511
697.721	13041.787
697.849	13026.511
697.977	12994.000
698.105	12963.681
698.233	12889.617
698.362	12831.277
698.490	12786.702
698.618	12809.468
698.746	12801.766
698.874	12713.809
699.002	12867.021
699.130	12629.766
699.258	12618.404
699.387	12497.362
699.515	12542.170
699.643	12415.936
699.771	12459.298
699.899	12334.277
700.027	12376.000
700.155	12269.638
700.283	12240.894
700.412	12226.043
700.540	12190.468
700.668	12181.447
700.796	12073.340
700.924	12011.149
701.052	12008.745
701.180	12062.000
701.308	11908.660
701.437	11792.745
701.565	11742.106
701.693	11678.468
701.821	11679.064
701.949	11654.277
702.077	11589.085
702.205	11529.170
702.333	11536.000
702.462	11431.681
702.590	11443.851
702.718	11378.681
702.846	11295.979
702.974	11238.021
703.102	11208.213
703.230	11217.511
703.358	11150.000
703.487	11051.617
703.615	11221.894
703.743	10973.638
703.871	10935.362
703.999	10924.660
704.127	10930.489
704.255	10681.021
704.383	10904.362
704.512	10680.787
704.640	10650.532
704.768	10561.021
704.896	10583.511
705.024	10474.553
705.152	10530.191
705.280	10346.511
705.408	10329.298
705.537	10311.128
705.665	10171.787
705.793	10152.489
705.921	10113.660
706.049	10079.191
706.177	10010.298
706.305	9932.745
706.433	10016.617
706.562	9897.234
706.690	9820.894
706.818	9773.064
706.946	9981.213
707.074	9721.723
707.202	9678.404
707.330	9716.702
707.458	9602.319
707.587	9515.426
707.715	9486.468
707.843	9487.170
707.971	9479.574
708.099	9453.404
708.227	9359.255
708.355	9340.702
708.483	9255.553
708.612	9245.468
708.740	9218.851
708.868	9249.298
708.996	9117.894
709.124	9146.532
709.252	9067.277
709.380	9041.979
709.508	9074.128
709.637	8981.404
709.765	8938.830
709.893	8925.809
710.021	8907.128
710.149	8856.511
710.277	8873.936
710.405	8766.426
710.533	8771.298
710.662	8709.000
710.790	8692.149
710.918	8723.766
711.046	8648.340
711.174	8585.532
711.302	8585.574
711.430	8646.617
711.558	8541.553
711.687	8471.787
711.815	8469.872
711.943	8439.872
712.071	8453.128
712.199	8472.553
712.327	8385.000
712.455	8339.617
712.583	8355.532
712.712	8305.830
712.840	8276.596
712.968	8246.787
713.096	8251.489
713.224	8156.106
713.352	8165.128
713.480	8136.021
713.608	8122.532
713.737	8086.638
713.865	8066.809
713.993	8106.979
714.121	8009.830
714.249	8007.489
714.377	8079.128
714.505	8004.213
714.633	8083.106
714.762	7982.596
714.890	7856.702
715.018	7915.170
715.146	7901.000
715.274	7886.298
715.402	8005.213
715.530	7856.170
715.658	7732.830
715.787	7713.149
715.915	7891.340
716.043	7701.979
716.171	7776.936
716.299	7723.468
716.427	7675.021
716.555	7610.681
716.683	7612.638
716.812	7588.638
716.940	7606.340
717.068	7475.021
717.196	7644.681
717.324	7574.574
717.452	7470.021
717.580	7436.511
717.708	7414.170
717.837	7421.809
717.965	7295.383
718.093	7328.149
718.221	7267.340
718.349	7296.021
718.477	7299.426
718.605	7288.383
718.733	7185.319
718.862	7160.340
718.990	7136.362
719.118	7162.362
719.246	7067.851
719.374	7136.149
719.502	7075.298
719.630	7183.511
719.758	6953.894
719.887	6973.298
720.015	7125.787
720.143	6858.532
720.271	6892.894
720.399	6897.766
720.527	6888.383
720.655	6828.702
720.783	6850.766
720.912	6757.511
721.040	6752.596
721.168	6669.085
721.296	6705.745
721.424	6684.617
721.552	6576.596
721.680	6598.511
721.808	6606.255
721.937	6563.894
722.065	6597.234
722.193	6586.915
722.321	6438.723
722.449	6442.468
722.577	6393.362
722.705	6366.936
722.833	6402.340
722.962	6356.766
723.090	6272.043
723.218	6204.957
723.346	6219.085
723.474	6231.319
723.602	6303.894
723.730	6251.936
723.858	6306.915
723.987	6174.702
724.115	6172.128
724.243	6091.809
724.371	6081.766
724.499	6069.489
724.627	5958.085
724.755	5947.234
724.883	5958.149
725.012	5907.043
725.140	5914.702
725.268	5901.681
725.396	5811.234
725.524	5775.532
725.652	5795.106
725.780	5753.660
725.908	5836.085
726.037	5866.702
726.165	5681.894
726.293	5647.702
726.421	5642.915
726.549	5584.362
726.677	5576.851
726.805	5556.085
726.933	5504.085
727.062	5558.085
727.190	5497.787
727.318	5461.340
727.446	5460.489
727.574	5460.766
727.702	5516.957
727.830	5373.255
727.958	5437.489
