90pol_70_120_at_750.00nm_cut_at_984.50Y_01.dat
24.04.2023
10:54:36
cut middle at Y: 984.50
top cursor: 1008 down cursor: 961 mean of: 47 lines , 2560 datapoints
wavelength(nm)	intensity[arb. units]
585.996	23263.362
586.124	22686.383
586.252	22494.787
586.380	22510.000
586.508	22579.851
586.637	22672.170
586.765	22880.957
586.893	22870.319
587.021	22866.830
587.149	22925.426
587.277	23003.128
587.405	23094.298
587.533	23022.213
587.662	23204.340
587.790	23179.255
587.918	23112.532
588.046	23222.957
588.174	23220.064
588.302	23308.851
588.430	23231.000
588.558	23215.170
588.687	23383.255
588.815	23343.894
588.943	23274.213
589.071	23357.213
589.199	23432.979
589.327	23432.128
589.455	23355.681
589.583	23514.851
589.712	23468.489
589.840	23450.021
589.968	23477.255
590.096	23550.681
590.224	23532.574
590.352	23549.426
590.480	23524.404
590.608	23581.872
590.737	23656.319
590.865	23693.085
590.993	23635.021
591.121	23741.851
591.249	23721.404
591.377	23807.787
591.505	23792.532
591.633	23842.383
591.762	23759.426
591.890	23976.383
592.018	23852.681
592.146	23940.957
592.274	23948.745
592.402	23952.170
592.530	24066.255
592.658	24330.702
592.787	24191.894
592.915	24382.511
593.043	24329.383
593.171	24393.681
593.299	24530.532
593.427	24586.872
593.555	24639.170
593.683	24720.021
593.812	24865.979
593.940	24794.830
594.068	24993.936
594.196	25133.532
594.324	25194.574
594.452	25217.064
594.580	25338.255
594.708	25401.872
594.837	25438.043
594.965	25574.489
595.093	25759.511
595.221	25706.617
595.349	25942.255
595.477	25967.106
595.605	25986.723
595.733	25991.851
595.862	26311.702
595.990	26171.894
596.118	26267.298
596.246	26539.851
596.374	26401.894
596.502	26533.553
596.630	26503.553
596.758	26645.830
596.887	26590.979
597.015	26724.723
597.143	26828.979
597.271	26849.957
597.399	26902.234
597.527	26874.340
597.655	26988.340
597.783	26936.787
597.912	26876.468
598.040	27055.894
598.168	26982.830
598.296	27036.128
598.424	26992.383
598.552	27035.426
598.680	26984.638
598.808	27226.383
598.937	27123.000
599.065	27080.574
599.193	27149.043
599.321	27169.851
599.449	27151.787
599.577	27136.447
599.705	27272.660
599.833	27204.170
599.962	27279.511
600.090	27270.106
600.218	27380.574
600.346	27405.468
600.474	27350.936
600.602	27460.043
600.730	27550.213
600.858	27614.319
600.987	27807.936
601.115	27828.702
601.243	27876.787
601.371	27891.872
601.499	28061.426
601.627	28107.830
601.755	28210.809
601.883	28243.532
602.012	28448.170
602.140	28440.383
602.268	28733.213
602.396	28747.851
602.524	28984.340
602.652	28988.766
602.780	29147.702
602.908	29289.064
603.037	29446.894
603.165	29473.426
603.293	29688.149
603.421	29801.426
603.549	29887.660
603.677	30072.106
603.805	30196.298
603.933	30416.681
604.062	30537.426
604.190	30627.298
604.318	30918.021
604.446	30973.149
604.574	31191.319
604.702	31312.574
604.830	31435.596
604.958	31508.681
605.087	31685.787
605.215	31805.277
605.343	31953.617
605.471	32116.489
605.599	32222.723
605.727	32319.809
605.855	32413.851
605.983	32593.489
606.112	32660.511
606.240	32734.021
606.368	32747.064
606.496	33061.766
606.624	32944.532
606.752	33080.128
606.880	33239.574
607.008	33313.660
607.137	33369.553
607.265	33245.149
607.393	33370.447
607.521	33550.979
607.649	33414.106
607.777	33394.170
607.905	33427.957
608.033	33521.872
608.162	33557.064
608.290	33562.106
608.418	33582.915
608.546	33574.596
608.674	33615.489
608.802	33621.702
608.930	33610.213
609.058	33767.319
609.187	33852.596
609.315	33800.298
609.443	33851.660
609.571	33882.234
609.699	33794.298
609.827	33962.085
609.955	33812.149
610.083	33846.532
610.212	33928.340
610.340	33974.894
610.468	34016.170
610.596	34071.064
610.724	34179.979
610.852	34115.000
610.980	34238.915
611.108	34222.511
611.237	34280.170
611.365	34328.426
611.493	34324.872
611.621	34549.340
611.749	34653.894
611.877	34793.681
612.005	34773.170
612.133	34872.766
612.262	34969.809
612.390	35100.128
612.518	35223.404
612.646	35405.383
612.774	35477.170
612.902	35630.170
613.030	35832.553
613.158	35991.936
613.287	36074.872
613.415	36095.766
613.543	36078.447
613.671	36220.936
613.799	36362.574
613.927	36302.596
614.055	36530.723
614.183	36722.191
614.312	36703.809
614.440	36929.553
614.568	36975.979
614.696	37161.574
614.824	37414.787
614.952	37447.489
615.080	37575.979
615.208	37752.723
615.337	37916.298
615.465	38025.957
615.593	38384.170
615.721	38480.085
615.849	38743.106
615.977	38772.957
616.105	38878.234
616.233	38831.745
616.362	38942.128
616.490	39056.702
616.618	39253.106
616.746	39329.532
616.874	39464.936
617.002	39425.234
617.130	39574.213
617.258	39796.574
617.387	39753.255
617.515	39750.234
617.643	39974.021
617.771	39865.319
617.899	40035.681
618.027	40130.766
618.155	40223.298
618.283	40348.106
618.412	40404.979
618.540	40531.936
618.668	40499.809
618.796	40767.085
618.924	40792.915
619.052	40775.809
619.180	40987.574
619.308	40896.511
619.437	40964.255
619.565	41012.213
619.693	41029.766
619.821	41158.383
619.949	41234.106
620.077	41319.511
620.205	41401.638
620.333	41460.957
620.462	41596.745
620.590	41579.511
620.718	41587.383
620.846	41621.213
620.974	41721.043
621.102	41784.638
621.230	41906.021
621.358	41962.426
621.487	41918.787
621.615	42014.957
621.743	42079.383
621.871	42118.277
621.999	42218.149
622.127	42234.809
622.255	42344.617
622.383	42303.596
622.512	42438.383
622.640	42513.638
622.768	42336.532
622.896	42400.745
623.024	42530.213
623.152	42572.830
623.280	42619.404
623.408	42567.702
623.537	42656.851
623.665	42737.468
623.793	42780.766
623.921	42684.702
624.049	42778.617
624.177	42855.447
624.305	42908.532
624.433	42839.851
624.562	42990.553
624.690	42989.234
624.818	43044.191
624.946	43175.277
625.074	43038.851
625.202	42985.340
625.330	43029.617
625.458	43092.213
625.587	43204.021
625.715	43180.191
625.843	43302.766
625.971	43211.809
626.099	43272.277
626.227	43340.830
626.355	43254.000
626.483	43434.170
626.612	43433.681
626.740	43450.191
626.868	43566.915
626.996	43632.298
627.124	43659.255
627.252	43725.128
627.380	43807.766
627.508	43853.404
627.637	43797.787
627.765	43935.106
627.893	44147.851
628.021	44149.979
628.149	44470.362
628.277	44575.574
628.405	44651.872
628.533	44472.872
628.662	44540.489
628.790	44623.894
628.918	44674.489
629.046	44811.447
629.174	45054.128
629.302	45410.915
629.430	45426.596
629.558	45341.149
629.687	45284.149
629.815	45443.191
629.943	45521.766
630.071	45655.021
630.199	45747.298
630.327	45870.830
630.455	46050.149
630.583	46064.660
630.712	46044.745
630.840	46193.574
630.968	46234.064
631.096	46293.362
631.224	46359.872
631.352	46379.851
631.480	46546.191
631.608	46634.957
631.737	46711.830
631.865	46876.149
631.993	46739.894
632.121	46924.809
632.249	46934.936
632.377	46891.000
632.505	46971.319
632.633	46821.234
632.762	46864.574
632.890	47004.064
633.018	46907.255
633.146	47198.170
633.274	46979.915
633.402	47089.000
633.530	47066.064
633.658	47139.043
633.787	46943.979
633.915	46976.787
634.043	46946.638
634.171	47071.234
634.299	46928.383
634.427	46997.511
634.555	46894.128
634.683	46839.872
634.812	46815.362
634.940	46813.511
635.068	46803.191
635.196	46788.894
635.324	46795.787
635.452	46626.106
635.580	46571.681
635.708	46538.234
635.837	46514.021
635.965	46411.553
636.093	46311.936
636.221	46468.681
636.349	46412.702
636.477	46207.809
636.605	46328.489
636.733	46112.106
636.862	46138.766
636.990	46041.340
637.118	46002.596
637.246	45980.660
637.374	45957.404
637.502	45935.511
637.630	45743.277
637.758	45736.979
637.887	45778.638
638.015	45697.809
638.143	45708.596
638.271	45591.766
638.399	45570.809
638.527	45576.383
638.655	45515.000
638.783	45597.936
638.912	45548.340
639.040	45497.000
639.168	45454.404
639.296	45439.979
639.424	45590.064
639.552	45440.021
639.680	45511.255
639.808	45430.532
639.937	45388.638
640.065	45424.191
640.193	45503.043
640.321	45343.830
640.449	45408.809
640.577	45461.277
640.705	45387.404
640.833	45437.745
640.962	45288.426
641.090	45336.809
641.218	45329.085
641.346	45451.957
641.474	45407.298
641.602	45320.702
641.730	45473.255
641.858	45450.766
641.987	45505.404
642.115	45442.234
642.243	45507.638
642.371	45425.681
642.499	45472.319
642.627	45614.128
642.755	45606.745
642.883	45589.702
643.012	45564.894
643.140	45576.532
643.268	45577.830
643.396	45543.213
643.524	45706.957
643.652	45739.447
643.780	45658.404
643.908	45651.298
644.037	45744.000
644.165	45611.149
644.293	45570.085
644.421	45708.383
644.549	45662.830
644.677	45607.383
644.805	45594.574
644.933	45467.872
645.062	45546.128
645.190	45535.894
645.318	45529.638
645.446	45417.574
645.574	45508.596
645.702	45477.617
645.830	45524.830
645.958	45333.383
646.087	45515.915
646.215	45054.191
646.343	45453.170
646.471	45158.362
646.599	45228.702
646.727	44982.894
646.855	44963.000
646.983	44972.064
647.112	44850.809
647.240	44895.511
647.368	44817.936
647.496	44719.617
647.624	44597.404
647.752	44502.830
647.880	44493.553
648.008	44327.830
648.137	44345.979
648.265	44204.149
648.393	44201.468
648.521	44129.170
648.649	43964.660
648.777	43900.319
648.905	43782.319
649.033	43556.553
649.162	43587.426
649.290	43507.170
649.418	43334.000
649.546	43369.106
649.674	43341.255
649.802	43101.043
649.930	43178.596
650.058	42941.447
650.187	42787.340
650.315	42796.340
650.443	42674.936
650.571	42611.617
650.699	42519.447
650.827	42411.830
650.955	42369.723
651.083	42212.468
651.212	42152.383
651.340	42127.979
651.468	41986.532
651.596	41837.043
651.724	41779.064
651.852	41725.851
651.980	41545.532
652.108	41472.851
652.237	41421.660
652.365	41317.872
652.493	41241.298
652.621	41207.957
652.749	41179.277
652.877	40910.894
653.005	40800.340
653.133	40825.383
653.262	40786.596
653.390	40711.894
653.518	40666.426
653.646	40551.043
653.774	40528.766
653.902	40243.170
654.030	40261.574
654.158	40055.915
654.287	40080.170
654.415	39915.638
654.543	39887.426
654.671	39717.043
654.799	39775.851
654.927	39579.872
655.055	39441.745
655.183	39303.255
655.312	39296.340
655.440	39158.872
655.568	39045.745
655.696	39014.128
655.824	39031.809
655.952	38770.404
656.080	38730.574
656.208	38671.064
656.337	38365.149
656.465	38397.000
656.593	38277.340
656.721	38074.191
656.849	37943.723
656.977	37805.085
657.105	37766.723
657.233	37572.979
657.362	37517.234
657.490	37323.468
657.618	37235.404
657.746	37228.170
657.874	37065.447
658.002	36919.702
658.130	36750.723
658.258	36599.915
658.387	36537.872
658.515	36379.681
658.643	36328.745
658.771	36255.468
658.899	36123.085
659.027	36042.064
659.155	35944.170
659.283	35990.723
659.412	35673.362
659.540	35645.106
659.668	35427.617
659.796	35381.043
659.924	35326.128
660.052	35086.894
660.180	35002.702
660.308	35012.745
660.437	34852.106
660.565	34811.362
660.693	34741.660
660.821	34586.979
660.949	34510.021
661.077	34432.447
661.205	34259.447
661.333	34142.383
661.462	34140.106
661.590	34083.234
661.718	34026.511
661.846	33859.617
661.974	33793.298
662.102	33631.468
662.230	33540.085
662.358	33510.043
662.487	33443.957
662.615	33336.191
662.743	33254.447
662.871	33173.255
662.999	33145.426
663.127	32887.000
663.255	32910.532
663.383	32892.489
663.512	32794.085
663.640	32771.319
663.768	32665.255
663.896	32674.617
664.024	32662.660
664.152	32556.574
664.280	32561.660
664.408	32517.362
664.537	32428.043
664.665	32404.894
664.793	32235.681
664.921	32189.319
665.049	32215.404
665.177	32001.957
665.305	32001.574
665.433	31873.426
665.562	31840.766
665.690	31877.468
665.818	31899.681
665.946	31729.745
666.074	31603.723
666.202	31556.383
666.330	31527.085
666.458	31451.511
666.587	31358.830
666.715	31370.979
666.843	31266.043
666.971	31177.170
667.099	31145.298
667.227	31094.787
667.355	30977.723
667.483	30917.404
667.612	30793.553
667.740	30843.532
667.868	30795.213
667.996	30674.511
668.124	30558.000
668.252	30486.979
668.380	30452.532
668.508	30373.298
668.637	30361.468
668.765	30212.043
668.893	30070.277
669.021	30043.404
669.149	29937.000
669.277	29918.851
669.405	29736.447
669.533	29630.979
669.662	29890.638
669.790	29554.489
669.918	29458.043
670.046	29363.170
670.174	29262.936
670.302	29210.511
670.430	28992.128
670.558	28912.532
670.687	28775.106
670.815	28798.043
670.943	28630.170
671.071	28515.234
671.199	28436.596
671.327	28322.362
671.455	28160.915
671.583	28086.617
671.712	28142.085
671.840	27990.830
671.968	27705.064
672.096	27670.043
672.224	27537.085
672.352	27574.553
672.480	27292.213
672.608	27178.511
672.737	26985.426
672.865	27090.383
672.993	26744.574
673.121	26636.915
673.249	26520.553
673.377	26409.553
673.505	26218.149
673.633	26133.915
673.762	25939.787
673.890	25822.511
674.018	26058.553
674.146	25738.915
674.274	25557.234
674.402	25622.723
674.530	25356.234
674.658	25198.702
674.787	25122.468
674.915	24999.191
675.043	24899.149
675.171	24771.638
675.299	24669.489
675.427	24516.617
675.555	24402.596
675.683	24340.170
675.812	24168.277
675.940	24079.000
676.068	23965.511
676.196	23860.468
676.324	23775.638
676.452	23641.191
676.580	23464.064
676.708	23377.830
676.837	23366.404
676.965	23180.447
677.093	23068.596
677.221	22971.851
677.349	22920.447
677.477	22867.596
677.605	22701.000
677.733	22686.553
677.862	22423.298
677.990	22337.362
678.118	22202.574
678.246	22195.170
678.374	22158.489
678.502	21900.872
678.630	21871.936
678.758	21802.021
678.887	21692.340
679.015	21572.277
679.143	21459.489
679.271	21389.149
679.399	21388.340
679.527	21210.000
679.655	21156.191
679.783	21095.106
679.912	21017.191
680.040	20944.319
680.168	20774.447
680.296	20751.213
680.424	20635.553
680.552	20585.532
680.680	20609.085
680.808	20479.766
680.937	20368.596
681.065	20285.617
681.193	20215.596
681.321	20163.021
681.449	20028.532
681.577	20034.511
681.705	19997.468
681.833	19909.915
681.962	19815.660
682.090	19869.936
682.218	19724.000
682.346	19581.383
682.474	19551.638
682.602	19441.660
682.730	19529.936
682.858	19369.638
682.987	19452.979
683.115	19338.213
683.243	19237.809
683.371	19129.553
683.499	19173.213
683.627	19092.894
683.755	19097.830
683.883	19145.128
684.012	18929.468
684.140	18807.277
684.268	18812.426
684.396	18726.043
684.524	18721.000
684.652	18677.064
684.780	18620.809
684.908	18572.234
685.037	18476.000
685.165	18386.532
685.293	18321.489
685.421	18403.085
685.549	18171.957
685.677	18143.830
685.805	18223.489
685.933	18116.553
686.062	17951.319
686.190	17924.468
686.318	17937.319
686.446	17859.979
686.574	17790.383
686.702	17793.915
686.830	17612.745
686.958	17549.021
687.087	17579.064
687.215	17479.702
687.343	17417.830
687.471	17342.745
687.599	17232.277
687.727	17392.064
687.855	17165.915
687.983	17111.383
688.112	17137.787
688.240	16985.043
688.368	16931.745
688.496	16843.149
688.624	16813.319
688.752	16721.979
688.880	16629.532
689.008	16617.043
689.137	16504.298
689.265	16411.894
689.393	16398.574
689.521	16283.553
689.649	16298.234
689.777	16180.979
689.905	16126.021
690.033	16090.000
690.162	16045.085
690.290	15920.426
690.418	15865.596
690.546	15903.362
690.674	15829.149
690.802	15662.681
690.930	15658.851
691.058	15531.787
691.187	15473.383
691.315	15421.617
691.443	15414.277
691.571	15240.043
691.699	15261.468
691.827	15201.106
691.955	15097.043
692.083	15037.638
692.212	15078.809
692.340	14925.830
692.468	14851.319
692.596	14780.000
692.724	14865.383
692.852	14678.851
692.980	14672.936
693.108	14587.298
693.237	14462.489
693.365	14379.936
693.493	14275.319
693.621	14272.106
693.749	14181.106
693.877	14182.936
694.005	14227.574
694.133	14033.426
694.262	13979.936
694.390	13919.426
694.518	13914.957
694.646	13767.426
694.774	13730.021
694.902	13837.936
695.030	13725.106
695.158	13541.979
695.287	13508.809
695.415	13520.298
695.543	13401.532
695.671	13462.106
695.799	13318.170
695.927	13273.787
696.055	13170.979
696.183	13071.638
696.312	13055.787
696.440	13170.702
696.568	13094.319
696.696	13052.383
696.824	12889.638
696.952	12852.766
697.080	12757.298
697.208	12669.915
697.337	12692.340
697.465	12589.404
697.593	12532.787
697.721	12499.936
697.849	12428.426
697.977	12367.213
698.105	12357.468
698.233	12214.702
698.362	12237.489
698.490	12170.830
698.618	12114.745
698.746	12134.596
698.874	12035.000
699.002	12221.106
699.130	11934.319
699.258	11882.149
699.387	11736.872
699.515	11777.213
699.643	11676.638
699.771	11758.128
699.899	11606.340
700.027	11566.447
700.155	11487.979
700.283	11471.787
700.412	11441.447
700.540	11342.489
700.668	11296.213
700.796	11188.191
700.924	11156.638
701.052	11069.830
701.180	11210.340
701.308	11010.043
701.437	10910.489
701.565	10886.468
701.693	10790.532
701.821	10762.915
701.949	10736.787
702.077	10661.340
702.205	10574.915
702.333	10574.213
702.462	10467.319
702.590	10459.277
702.718	10370.021
702.846	10332.851
702.974	10272.085
703.102	10177.745
703.230	10247.000
703.358	10101.255
703.487	10042.532
703.615	10131.617
703.743	9928.021
703.871	9871.489
703.999	9867.617
704.127	9870.213
704.255	9620.319
704.383	9787.085
704.512	9585.447
704.640	9557.660
704.768	9400.489
704.896	9439.362
705.024	9338.957
705.152	9416.957
705.280	9233.596
705.408	9175.340
705.537	9150.213
705.665	9058.872
705.793	8955.574
705.921	8971.745
706.049	8946.915
706.177	8822.106
706.305	8849.787
706.433	8887.681
706.562	8725.574
706.690	8614.723
706.818	8613.574
706.946	8773.106
707.074	8529.766
707.202	8495.106
707.330	8460.021
707.458	8366.489
707.587	8311.787
707.715	8267.021
707.843	8299.468
707.971	8239.723
708.099	8251.128
708.227	8102.681
708.355	8049.319
708.483	8023.234
708.612	7981.383
708.740	7976.404
708.868	7976.426
708.996	7931.340
709.124	7921.766
709.252	7802.851
709.380	7719.043
709.508	7775.085
709.637	7687.532
709.765	7660.532
709.893	7624.426
710.021	7606.447
710.149	7538.128
710.277	7593.106
710.405	7450.660
710.533	7470.723
710.662	7415.745
710.790	7398.000
710.918	7374.511
711.046	7353.191
711.174	7250.340
711.302	7291.468
711.430	7295.723
711.558	7160.255
711.687	7151.191
711.815	7167.723
711.943	7102.851
712.071	7079.170
712.199	7064.532
712.327	7038.872
712.455	6960.851
712.583	6979.809
712.712	6882.043
712.840	6907.000
712.968	6869.426
713.096	6882.830
713.224	6778.723
713.352	6791.596
713.480	6724.234
713.608	6745.596
713.737	6718.234
713.865	6688.936
713.993	6699.277
714.121	6602.511
714.249	6589.426
714.377	6659.809
714.505	6545.362
714.633	6699.298
714.762	6531.064
714.890	6422.511
715.018	6485.830
715.146	6492.511
715.274	6451.702
715.402	6576.766
715.530	6431.957
715.658	6295.681
715.787	6302.723
715.915	6436.426
716.043	6259.447
716.171	6305.851
716.299	6292.149
716.427	6175.809
716.555	6176.787
716.683	6148.723
716.812	6114.638
716.940	6132.787
717.068	5998.872
717.196	6185.660
717.324	6147.681
717.452	5979.106
717.580	5945.447
717.708	5942.936
717.837	5970.404
717.965	5860.787
718.093	5880.851
718.221	5797.957
718.349	5856.149
718.477	5800.723
718.605	5802.213
718.733	5745.660
718.862	5731.511
718.990	5670.362
719.118	5647.787
719.246	5578.064
719.374	5708.851
719.502	5623.191
719.630	5731.085
719.758	5484.809
719.887	5478.553
720.015	5677.085
720.143	5399.745
720.271	5373.468
720.399	5409.809
720.527	5425.468
720.655	5421.234
720.783	5382.553
720.912	5269.319
721.040	5258.681
721.168	5219.532
721.296	5256.234
721.424	5188.404
721.552	5071.213
721.680	5100.170
721.808	5103.447
721.937	5057.617
722.065	5137.915
722.193	5138.596
722.321	4987.426
722.449	4946.170
722.577	4940.660
722.705	4886.787
722.833	4919.638
722.962	4926.851
723.090	4802.319
723.218	4767.830
723.346	4783.170
723.474	4691.468
723.602	4852.702
723.730	4733.298
723.858	4850.617
723.987	4700.574
724.115	4730.255
724.243	4612.021
724.371	4614.723
724.499	4639.447
724.627	4509.426
724.755	4487.957
724.883	4506.362
725.012	4454.851
725.140	4486.000
725.268	4426.511
725.396	4336.277
725.524	4347.617
725.652	4367.766
725.780	4333.596
725.908	4361.574
726.037	4426.426
726.165	4254.426
726.293	4201.915
726.421	4209.404
726.549	4153.277
726.677	4149.511
726.805	4134.915
726.933	4095.128
727.062	4087.149
727.190	4076.468
727.318	3990.511
727.446	4029.000
727.574	4001.787
727.702	4100.128
727.830	3950.957
727.958	4006.319
728.087	3924.979
