90pol_90_70_at_750.00nm_cut_at_984.50Y_01.dat
24.04.2023
10:51:44
cut middle at Y: 984.50
top cursor: 1008 down cursor: 961 mean of: 47 lines , 2560 datapoints
wavelength(nm)	intensity[arb. units]
585.996	17143.298
586.124	16663.489
586.252	16551.511
586.380	16579.638
586.508	16644.553
586.637	16784.553
586.765	16818.489
586.893	16878.404
587.021	16920.553
587.149	17013.128
587.277	17020.234
587.405	17114.149
587.533	17039.936
587.662	17239.489
587.790	17251.340
587.918	17209.596
588.046	17261.383
588.174	17163.723
588.302	17312.085
588.430	17277.553
588.558	17274.298
588.687	17308.809
588.815	17345.447
588.943	17337.511
589.071	17389.404
589.199	17455.957
589.327	17432.277
589.455	17379.149
589.583	17543.745
589.712	17536.106
589.840	17493.872
589.968	17509.255
590.096	17495.043
590.224	17569.170
590.352	17571.298
590.480	17580.872
590.608	17589.021
590.737	17719.170
590.865	17667.340
590.993	17628.234
591.121	17764.511
591.249	17729.638
591.377	17719.702
591.505	17797.170
591.633	17849.149
591.762	17873.915
591.890	18015.511
592.018	17914.404
592.146	17962.383
592.274	17959.532
592.402	17954.106
592.530	18067.021
592.658	18265.085
592.787	18145.064
592.915	18292.106
593.043	18218.468
593.171	18255.298
593.299	18376.638
593.427	18388.170
593.555	18442.255
593.683	18453.319
593.812	18551.660
593.940	18588.447
594.068	18616.000
594.196	18821.447
594.324	18845.617
594.452	18795.106
594.580	18957.128
594.708	18958.383
594.837	18979.809
594.965	19100.745
595.093	19152.447
595.221	19162.170
595.349	19341.979
595.477	19268.213
595.605	19333.553
595.733	19385.085
595.862	19558.787
595.990	19486.809
596.118	19508.298
596.246	19784.532
596.374	19630.915
596.502	19664.723
596.630	19744.638
596.758	19761.936
596.887	19713.872
597.015	19829.489
597.143	19919.128
597.271	19835.106
597.399	19861.745
597.527	19834.404
597.655	19950.447
597.783	19942.383
597.912	19956.085
598.040	19985.191
598.168	20024.234
598.296	20005.766
598.424	19997.447
598.552	20067.340
598.680	19988.383
598.808	20139.723
598.937	20011.745
599.065	19991.021
599.193	20057.766
599.321	20126.936
599.449	20016.340
599.577	20061.234
599.705	20149.277
599.833	20040.149
599.962	20122.319
600.090	20198.128
600.218	20237.000
600.346	20323.426
600.474	20257.043
600.602	20342.170
600.730	20340.277
600.858	20372.085
600.987	20594.617
601.115	20509.851
601.243	20646.383
601.371	20564.766
601.499	20721.085
601.627	20828.957
601.755	20764.660
601.883	20879.766
602.012	21036.660
602.140	20964.766
602.268	21180.447
602.396	21118.809
602.524	21343.021
602.652	21354.830
602.780	21382.319
602.908	21472.617
603.037	21549.617
603.165	21635.872
603.293	21677.936
603.421	21794.404
603.549	21848.596
603.677	22059.638
603.805	22040.085
603.933	22129.128
604.062	22387.426
604.190	22310.766
604.318	22390.766
604.446	22478.766
604.574	22567.298
604.702	22649.298
604.830	22761.362
604.958	22822.362
605.087	22912.936
605.215	22944.681
605.343	23038.298
605.471	23175.681
605.599	23140.255
605.727	23147.298
605.855	23309.383
605.983	23233.745
606.112	23302.064
606.240	23378.702
606.368	23362.638
606.496	23528.830
606.624	23418.277
606.752	23522.511
606.880	23631.234
607.008	23724.851
607.137	23684.468
607.265	23520.660
607.393	23608.340
607.521	23655.447
607.649	23622.319
607.777	23559.170
607.905	23617.234
608.033	23674.404
608.162	23602.362
608.290	23577.723
608.418	23564.298
608.546	23633.872
608.674	23570.362
608.802	23552.170
608.930	23488.660
609.058	23463.617
609.187	23626.149
609.315	23615.170
609.443	23548.872
609.571	23576.213
609.699	23528.085
609.827	23614.383
609.955	23518.872
610.083	23488.660
610.212	23536.319
610.340	23476.596
610.468	23543.362
610.596	23590.191
610.724	23612.319
610.852	23537.128
610.980	23561.255
611.108	23594.511
611.237	23540.723
611.365	23591.213
611.493	23576.553
611.621	23689.574
611.749	23637.255
611.877	23726.404
612.005	23741.638
612.133	23836.894
612.262	23853.489
612.390	23879.362
612.518	23955.362
612.646	23989.723
612.774	23927.404
612.902	24067.745
613.030	24228.362
613.158	24312.681
613.287	24249.766
613.415	24213.000
613.543	24178.489
613.671	24187.383
613.799	24310.979
613.927	24210.851
614.055	24235.681
614.183	24430.362
614.312	24317.213
614.440	24410.681
614.568	24409.723
614.696	24513.234
614.824	24651.255
614.952	24496.957
615.080	24586.404
615.208	24636.787
615.337	24655.532
615.465	24807.404
615.593	25000.255
615.721	25044.106
615.849	25106.596
615.977	25081.915
616.105	25081.511
616.233	25042.723
616.362	25088.957
616.490	25102.638
616.618	25155.362
616.746	25182.511
616.874	25312.830
617.002	25179.085
617.130	25241.872
617.258	25356.489
617.387	25328.085
617.515	25252.681
617.643	25275.170
617.771	25265.723
617.899	25339.660
618.027	25286.298
618.155	25347.809
618.283	25346.043
618.412	25361.426
618.540	25365.638
618.668	25323.957
618.796	25332.000
618.924	25525.128
619.052	25358.957
619.180	25370.809
619.308	25375.723
619.437	25351.830
619.565	25365.426
619.693	25302.064
619.821	25275.149
619.949	25380.851
620.077	25362.191
620.205	25381.787
620.333	25355.298
620.462	25367.979
620.590	25325.745
620.718	25317.511
620.846	25320.979
620.974	25330.936
621.102	25294.213
621.230	25213.319
621.358	25293.362
621.487	25218.191
621.615	25204.936
621.743	25296.957
621.871	25188.426
621.999	25261.532
622.127	25201.128
622.255	25205.149
622.383	25147.340
622.512	25119.064
622.640	25212.745
622.768	25017.596
622.896	25010.660
623.024	25031.298
623.152	25025.128
623.280	24991.872
623.408	24856.681
623.537	24891.489
623.665	24832.723
623.793	24857.574
623.921	24808.106
624.049	24716.043
624.177	24610.340
624.305	24672.745
624.433	24723.915
624.562	24745.447
624.690	24628.596
624.818	24668.340
624.946	24700.298
625.074	24621.957
625.202	24559.128
625.330	24523.255
625.458	24462.894
625.587	24414.191
625.715	24393.362
625.843	24534.957
625.971	24407.128
626.099	24328.574
626.227	24310.191
626.355	24241.553
626.483	24380.596
626.612	24206.787
626.740	24257.021
626.868	24196.702
626.996	24188.511
627.124	24165.915
627.252	24113.362
627.380	24180.979
627.508	24134.021
627.637	24075.936
627.765	24168.043
627.893	24167.000
628.021	24170.468
628.149	24355.064
628.277	24403.723
628.405	24346.319
628.533	24126.553
628.662	24062.106
628.790	24059.149
628.918	24051.851
629.046	24034.787
629.174	24111.894
629.302	24463.149
629.430	24173.128
629.558	24068.617
629.687	24060.787
629.815	24059.085
629.943	24058.489
630.071	24119.957
630.199	24113.021
630.327	24132.894
630.455	24086.957
630.583	24159.830
630.712	24134.723
630.840	24130.532
630.968	24101.787
631.096	24099.979
631.224	24054.255
631.352	24059.979
631.480	24031.340
631.608	24122.426
631.737	24106.574
631.865	24159.830
631.993	23998.255
632.121	24120.021
632.249	24025.128
632.377	23978.106
632.505	24017.894
632.633	23828.574
632.762	23890.000
632.890	23882.596
633.018	23714.596
633.146	23845.915
633.274	23715.702
633.402	23676.830
633.530	23607.213
633.658	23705.447
633.787	23502.596
633.915	23565.213
634.043	23431.128
634.171	23366.660
634.299	23399.915
634.427	23376.277
634.555	23295.894
634.683	23170.660
634.812	23123.000
634.940	23064.298
635.068	23007.234
635.196	22914.915
635.324	22892.681
635.452	22888.277
635.580	22747.213
635.708	22739.681
635.837	22686.319
635.965	22619.213
636.093	22508.447
636.221	22483.277
636.349	22442.106
636.477	22374.766
636.605	22435.723
636.733	22158.404
636.862	22144.723
636.990	22115.660
637.118	22046.447
637.246	22066.149
637.374	21920.383
637.502	21949.957
637.630	21806.064
637.758	21760.723
637.887	21698.298
638.015	21693.319
638.143	21580.213
638.271	21488.851
638.399	21432.277
638.527	21446.426
638.655	21393.234
638.783	21433.021
638.912	21260.638
639.040	21276.298
639.168	21257.702
639.296	21169.936
639.424	21247.723
639.552	21090.830
639.680	21246.957
639.808	21064.979
639.937	20951.894
640.065	20919.957
640.193	20933.255
640.321	20837.426
640.449	20880.596
640.577	20841.574
640.705	20733.894
640.833	20782.170
640.962	20698.106
641.090	20666.702
641.218	20617.128
641.346	20595.021
641.474	20606.766
641.602	20521.851
641.730	20555.851
641.858	20619.596
641.987	20532.277
642.115	20496.851
642.243	20490.021
642.371	20510.617
642.499	20402.319
642.627	20428.383
642.755	20434.000
642.883	20483.298
643.012	20381.383
643.140	20368.043
643.268	20348.468
643.396	20267.404
643.524	20454.936
643.652	20328.894
643.780	20243.511
643.908	20286.191
644.037	20307.128
644.165	20206.383
644.293	20129.979
644.421	20137.213
644.549	20225.936
644.677	20089.085
644.805	20086.255
644.933	20015.191
645.062	20036.255
645.190	20034.128
645.318	20036.936
645.446	19925.915
645.574	19972.106
645.702	19857.936
645.830	20049.894
645.958	19763.383
646.087	19895.830
646.215	19759.362
646.343	19900.511
646.471	19681.213
646.599	19725.553
646.727	19610.298
646.855	19590.809
646.983	19566.979
647.112	19515.787
647.240	19571.532
647.368	19422.043
647.496	19374.660
647.624	19246.723
647.752	19247.085
647.880	19261.064
648.008	19170.681
648.137	19162.574
648.265	19069.106
648.393	19079.319
648.521	18986.830
648.649	18996.957
648.777	18963.894
648.905	18796.660
649.033	18771.043
649.162	18763.404
649.290	18729.702
649.418	18580.723
649.546	18611.319
649.674	18538.596
649.802	18453.426
649.930	18617.383
650.058	18397.809
650.187	18304.915
650.315	18328.660
650.443	18310.596
650.571	18283.064
650.699	18230.170
650.827	18166.702
650.955	18152.404
651.083	18134.064
651.212	18063.851
651.340	18067.894
651.468	17990.532
651.596	17866.574
651.724	17847.830
651.852	17877.936
651.980	17824.319
652.108	17791.043
652.237	17809.383
652.365	17749.213
652.493	17656.319
652.621	17658.681
652.749	17617.043
652.877	17558.128
653.005	17514.340
653.133	17443.511
653.262	17461.170
653.390	17416.660
653.518	17436.426
653.646	17344.319
653.774	17478.723
653.902	17300.298
654.030	17276.426
654.158	17171.745
654.287	17195.319
654.415	17140.362
654.543	17145.723
654.671	17086.489
654.799	17062.723
654.927	16953.447
655.055	16971.468
655.183	16904.255
655.312	16918.383
655.440	16889.894
655.568	16789.447
655.696	16843.170
655.824	16899.809
655.952	16824.894
656.080	16659.106
656.208	16774.021
656.337	16604.489
656.465	16612.043
656.593	16520.447
656.721	16467.404
656.849	16531.830
656.977	16471.085
657.105	16397.894
657.233	16311.340
657.362	16264.106
657.490	16177.043
657.618	16208.000
657.746	16125.426
657.874	16089.957
658.002	16049.447
658.130	16026.319
658.258	15929.021
658.387	15936.809
658.515	15861.128
658.643	15809.745
658.771	15874.617
658.899	15831.787
659.027	15763.340
659.155	15752.298
659.283	15840.468
659.412	15624.596
659.540	15612.319
659.668	15518.191
659.796	15527.787
659.924	15524.660
660.052	15493.383
660.180	15426.766
660.308	15347.681
660.437	15322.000
660.565	15292.149
660.693	15258.702
660.821	15208.660
660.949	15177.702
661.077	15172.979
661.205	15115.170
661.333	15066.766
661.462	15135.787
661.590	15050.617
661.718	15177.915
661.846	15027.340
661.974	15136.298
662.102	14895.553
662.230	14978.191
662.358	14950.894
662.487	14893.213
662.615	14834.128
662.743	14786.426
662.871	14798.681
662.999	14723.277
663.127	14708.064
663.255	14848.447
663.383	14762.362
663.512	14704.638
663.640	14725.447
663.768	14703.404
663.896	14698.234
664.024	14731.979
664.152	14689.128
664.280	14687.447
664.408	14689.915
664.537	14722.319
664.665	14659.404
664.793	14566.979
664.921	14576.702
665.049	14550.553
665.177	14612.447
665.305	14556.213
665.433	14559.851
665.562	14504.532
665.690	14530.106
665.818	14679.191
665.946	14544.745
666.074	14467.830
666.202	14469.936
666.330	14526.000
666.458	14468.362
666.587	14424.298
666.715	14436.894
666.843	14437.787
666.971	14408.511
667.099	14464.660
667.227	14418.809
667.355	14382.745
667.483	14355.362
667.612	14421.957
667.740	14393.149
667.868	14479.106
667.996	14407.787
668.124	14315.957
668.252	14320.234
668.380	14341.149
668.508	14319.766
668.637	14196.574
668.765	14223.149
668.893	14259.021
669.021	14230.383
669.149	14167.255
669.277	14188.936
669.405	14118.766
669.533	14126.277
669.662	14380.894
669.790	14120.787
669.918	14124.596
670.046	14048.234
670.174	14073.128
670.302	14104.830
670.430	13978.468
670.558	14009.596
670.687	13871.702
670.815	14049.574
670.943	13840.787
671.071	13798.766
671.199	13837.723
671.327	13730.340
671.455	13759.957
671.583	13673.128
671.712	13817.979
671.840	13677.255
671.968	13559.702
672.096	13534.255
672.224	13527.723
672.352	13664.936
672.480	13486.362
672.608	13371.936
672.737	13380.128
672.865	13482.745
672.993	13292.830
673.121	13269.234
673.249	13193.745
673.377	13159.404
673.505	13134.319
673.633	13040.702
673.762	13026.468
673.890	12963.787
674.018	13214.809
674.146	12921.213
674.274	12904.660
674.402	13070.979
674.530	12822.809
674.658	12860.511
674.787	12747.723
674.915	12689.851
675.043	12762.319
675.171	12668.021
675.299	12578.553
675.427	12598.617
675.555	12553.872
675.683	12478.255
675.812	12539.851
675.940	12441.191
676.068	12396.319
676.196	12398.277
676.324	12317.404
676.452	12329.809
676.580	12274.957
676.708	12258.468
676.837	12290.021
676.965	12161.255
677.093	12134.894
677.221	12074.085
677.349	12110.766
677.477	12107.213
677.605	12004.426
677.733	12039.787
677.862	11875.553
677.990	11902.021
678.118	11859.553
678.246	11841.085
678.374	11820.043
678.502	11798.340
678.630	11778.936
678.758	11744.766
678.887	11664.149
679.015	11633.000
679.143	11627.638
679.271	11576.149
679.399	11616.064
679.527	11556.170
679.655	11523.574
679.783	11543.128
679.912	11567.298
680.040	11475.766
680.168	11476.872
680.296	11462.085
680.424	11369.170
680.552	11417.830
680.680	11449.383
680.808	11329.872
680.937	11311.532
681.065	11249.191
681.193	11273.660
681.321	11280.851
681.449	11290.596
681.577	11274.213
681.705	11270.745
681.833	11210.191
681.962	11143.340
682.090	11294.574
682.218	11170.702
682.346	11155.617
682.474	11155.532
682.602	11125.660
682.730	11114.021
682.858	11075.915
682.987	11129.809
683.115	11111.383
683.243	11049.191
683.371	11040.787
683.499	11013.936
683.627	11064.702
683.755	11080.638
683.883	11190.085
684.012	11040.255
684.140	10972.021
684.268	10966.085
684.396	11026.340
684.524	11021.702
684.652	11002.915
684.780	10970.404
684.908	10984.894
685.037	10887.277
685.165	10863.362
685.293	10828.872
685.421	10994.681
685.549	10779.468
685.677	10862.255
685.805	10984.340
685.933	10885.191
686.062	10756.426
686.190	10737.383
686.318	10772.277
686.446	10749.915
686.574	10721.383
686.702	10824.745
686.830	10708.745
686.958	10636.468
687.087	10667.362
687.215	10694.426
687.343	10580.234
687.471	10575.681
687.599	10565.106
687.727	10775.787
687.855	10581.468
687.983	10637.213
688.112	10606.723
688.240	10493.851
688.368	10493.340
688.496	10494.426
688.624	10473.191
688.752	10390.170
688.880	10442.298
689.008	10380.404
689.137	10406.702
689.265	10334.936
689.393	10268.957
689.521	10273.511
689.649	10270.085
689.777	10225.340
689.905	10211.468
690.033	10183.957
690.162	10151.660
690.290	10142.426
690.418	10103.043
690.546	10224.085
690.674	10167.319
690.802	10037.298
690.930	10079.957
691.058	10026.319
691.187	10001.106
691.315	9986.766
691.443	10000.511
691.571	9926.915
691.699	9928.213
691.827	9920.787
691.955	9850.574
692.083	9865.830
692.212	9940.234
692.340	9783.106
692.468	9790.298
692.596	9769.787
692.724	9850.489
692.852	9698.426
692.980	9744.298
693.108	9646.596
693.237	9605.979
693.365	9591.553
693.493	9539.106
693.621	9526.872
693.749	9511.191
693.877	9458.830
694.005	9572.723
694.133	9453.872
694.262	9430.681
694.390	9362.660
694.518	9381.957
694.646	9387.149
694.774	9355.638
694.902	9440.383
695.030	9333.957
695.158	9277.574
695.287	9275.255
695.415	9278.532
695.543	9162.255
695.671	9317.106
695.799	9218.851
695.927	9168.809
696.055	9126.851
696.183	9134.489
696.312	9089.702
696.440	9275.149
696.568	9167.149
696.696	9124.149
696.824	8993.681
696.952	8979.915
697.080	8980.638
697.208	8883.596
697.337	8965.085
697.465	8910.064
697.593	8823.553
697.721	8858.660
697.849	8834.340
697.977	8778.000
698.105	8806.957
698.233	8741.021
698.362	8770.638
698.490	8741.979
698.618	8729.809
698.746	8762.574
698.874	8717.426
699.002	8847.277
699.130	8623.872
699.258	8618.340
699.387	8478.085
699.515	8575.064
699.643	8482.723
699.771	8584.851
699.899	8463.468
700.027	8519.149
700.155	8416.574
700.283	8406.553
700.412	8387.851
700.540	8316.553
700.668	8350.362
700.796	8295.979
700.924	8266.128
701.052	8211.021
701.180	8285.234
701.308	8177.830
701.437	8107.043
701.565	8073.319
701.693	8061.213
701.821	8040.340
701.949	8019.830
702.077	8014.106
702.205	7959.532
702.333	7979.681
702.462	7882.128
702.590	7879.638
702.718	7861.851
702.846	7797.319
702.974	7769.745
703.102	7774.191
703.230	7844.447
703.358	7728.660
703.487	7633.447
703.615	7814.511
703.743	7576.851
703.871	7552.723
703.999	7590.319
704.127	7641.021
704.255	7437.468
704.383	7628.043
704.512	7447.745
704.640	7414.787
704.768	7310.362
704.896	7397.745
705.024	7289.213
705.152	7351.340
705.280	7246.638
705.408	7182.170
705.537	7143.106
705.665	7118.213
705.793	7070.957
705.921	7039.426
706.049	7059.277
706.177	6980.447
706.305	6988.319
706.433	7027.234
706.562	6889.319
706.690	6886.681
706.818	6833.043
706.946	7064.213
707.074	6832.660
707.202	6771.298
707.330	6815.319
707.458	6697.043
707.587	6680.404
707.715	6685.511
707.843	6694.170
707.971	6676.085
708.099	6696.638
708.227	6591.979
708.355	6505.957
708.483	6508.447
708.612	6494.149
708.740	6510.638
708.868	6516.000
708.996	6457.128
709.124	6439.255
709.252	6377.340
709.380	6343.979
709.508	6411.830
709.637	6290.064
709.765	6291.596
709.893	6299.957
710.021	6256.809
710.149	6234.191
710.277	6288.021
710.405	6164.979
710.533	6173.362
710.662	6145.936
710.790	6134.702
710.918	6140.468
711.046	6124.681
711.174	6053.872
711.302	6081.894
711.430	6137.936
711.558	5976.574
711.687	5985.511
711.815	6007.085
711.943	5987.660
712.071	5981.064
712.199	6013.702
712.327	5947.723
712.455	5867.149
712.583	5935.404
712.712	5895.872
712.840	5890.809
712.968	5854.191
713.096	5865.234
713.224	5760.809
713.352	5820.362
713.480	5749.872
713.608	5741.000
713.737	5755.617
713.865	5759.511
713.993	5789.532
714.121	5700.426
714.249	5725.681
714.377	5761.340
714.505	5672.553
714.633	5800.426
714.762	5663.234
714.890	5608.957
715.018	5629.426
715.146	5627.830
715.274	5619.043
715.402	5701.872
715.530	5591.872
715.658	5504.872
715.787	5493.489
715.915	5666.745
716.043	5486.426
716.171	5525.809
716.299	5539.787
716.427	5436.745
716.555	5423.064
716.683	5445.340
716.812	5376.894
716.940	5405.298
717.068	5338.404
717.196	5528.660
717.324	5450.511
717.452	5330.021
717.580	5295.915
717.708	5302.660
717.837	5331.213
717.965	5233.043
718.093	5276.745
718.221	5187.043
718.349	5203.191
718.477	5239.468
718.605	5208.170
718.733	5124.383
718.862	5117.766
718.990	5085.894
719.118	5103.979
719.246	5036.894
719.374	5126.957
719.502	5057.255
719.630	5169.894
719.758	4981.638
719.887	4956.085
720.015	5127.596
720.143	4914.851
720.271	4895.362
720.399	4897.915
720.527	4945.085
720.655	4918.255
720.783	4943.128
720.912	4839.553
721.040	4818.170
721.168	4767.574
721.296	4817.043
721.424	4739.362
721.552	4671.191
721.680	4657.511
721.808	4694.638
721.937	4658.617
722.065	4735.170
722.193	4727.447
722.321	4589.660
722.449	4565.915
722.577	4566.340
722.705	4506.468
722.833	4537.489
722.962	4539.128
723.090	4424.191
723.218	4379.064
723.346	4453.447
723.474	4385.340
723.602	4523.766
723.730	4419.447
723.858	4513.340
723.987	4389.340
724.115	4416.085
724.243	4291.468
724.371	4309.596
724.499	4315.362
724.627	4198.255
724.755	4182.723
724.883	4183.766
725.012	4191.723
725.140	4204.702
725.268	4172.489
725.396	4088.319
725.524	4080.532
725.652	4080.809
725.780	4046.043
725.908	4108.574
726.037	4175.447
726.165	3972.106
726.293	3945.191
726.421	3960.021
726.549	3910.702
726.677	3937.426
726.805	3890.872
726.933	3848.319
727.062	3883.979
727.190	3857.064
727.318	3793.830
727.446	3834.957
727.574	3819.766
727.702	3913.702
727.830	3761.894
727.958	3814.468
728.087	3747.234
728.215	3837.787
728.343	3772.809
728.471	3693.553
728.599	3663.340
728.727	3769.106
728.855	3638.979
