90pol_90_140_at_750.00nm_cut_at_984.50Y_01.dat
24.04.2023
10:46:58
cut middle at Y: 984.50
top cursor: 1008 down cursor: 961 mean of: 47 lines , 2560 datapoints
wavelength(nm)	intensity[arb. units]
585.996	21097.468
586.124	20579.106
586.252	20324.468
586.380	20457.362
586.508	20481.043
586.637	20521.170
586.765	20639.489
586.893	20659.957
587.021	20644.468
587.149	20722.064
587.277	20706.383
587.405	20849.723
587.533	20814.553
587.662	21003.894
587.790	20853.340
587.918	20760.532
588.046	20874.745
588.174	20819.681
588.302	20956.064
588.430	20798.468
588.558	20771.319
588.687	20899.894
588.815	20876.064
588.943	20870.106
589.071	20898.170
589.199	20865.894
589.327	20891.404
589.455	20809.298
589.583	20931.766
589.712	20962.064
589.840	20890.191
589.968	20895.660
590.096	20911.830
590.224	20924.234
590.352	20926.298
590.480	20917.894
590.608	20893.426
590.737	20984.043
590.865	20991.851
590.993	20886.191
591.121	21011.979
591.249	20959.809
591.377	20949.489
591.505	20986.191
591.633	20956.851
591.762	20991.149
591.890	21154.936
592.018	20990.277
592.146	21023.851
592.274	21039.702
592.402	21078.851
592.530	21084.255
592.658	21340.915
592.787	21202.511
592.915	21404.532
593.043	21279.213
593.171	21330.787
593.299	21354.085
593.427	21438.043
593.555	21587.319
593.683	21488.660
593.812	21680.106
593.940	21616.404
594.068	21760.979
594.196	21794.851
594.324	21890.149
594.452	21900.021
594.580	21950.596
594.708	22046.638
594.837	22033.596
594.965	22159.489
595.093	22253.128
595.221	22191.447
595.349	22462.574
595.477	22426.191
595.605	22435.234
595.733	22470.894
595.862	22716.766
595.990	22608.872
596.118	22584.298
596.246	22881.128
596.374	22806.064
596.502	22867.191
596.630	22818.915
596.758	22915.638
596.887	22881.000
597.015	22916.596
597.143	23011.596
597.271	22994.340
597.399	23063.021
597.527	22990.787
597.655	23031.851
597.783	22969.255
597.912	23068.638
598.040	23055.128
598.168	23107.277
598.296	23091.213
598.424	23057.128
598.552	23092.234
598.680	23060.149
598.808	23141.723
598.937	23023.660
599.065	22985.426
599.193	23020.447
599.321	23110.213
599.449	22941.766
599.577	22980.702
599.705	23041.596
599.833	22973.191
599.962	23003.213
600.090	23078.957
600.218	23080.106
600.346	23157.617
600.474	23107.936
600.602	23124.213
600.730	23212.553
600.858	23290.255
600.987	23387.277
601.115	23292.277
601.243	23439.596
601.371	23430.574
601.499	23462.149
601.627	23594.894
601.755	23563.426
601.883	23759.489
602.012	23817.064
602.140	23828.043
602.268	23974.979
602.396	23957.957
602.524	24106.340
602.652	24161.191
602.780	24241.447
602.908	24310.532
603.037	24416.170
603.165	24458.723
603.293	24575.894
603.421	24662.191
603.549	24741.851
603.677	24926.957
603.805	24932.660
603.933	25064.447
604.062	25257.574
604.190	25202.085
604.318	25357.638
604.446	25438.511
604.574	25521.064
604.702	25720.000
604.830	25735.574
604.958	25847.191
605.087	25978.511
605.215	25948.085
605.343	26059.596
605.471	26187.830
605.599	26290.872
605.727	26311.936
605.855	26404.638
605.983	26428.404
606.112	26474.340
606.240	26490.383
606.368	26582.830
606.496	26783.000
606.624	26580.532
606.752	26700.106
606.880	26775.596
607.008	26934.957
607.137	26883.000
607.265	26697.681
607.393	26765.723
607.521	26856.340
607.649	26833.702
607.777	26800.447
607.905	26825.830
608.033	26736.447
608.162	26777.872
608.290	26732.489
608.418	26758.596
608.546	26750.021
608.674	26725.936
608.802	26738.957
608.930	26710.915
609.058	26700.255
609.187	26843.681
609.315	26731.702
609.443	26777.468
609.571	26797.979
609.699	26759.149
609.827	26767.745
609.955	26706.149
610.083	26649.000
610.212	26733.511
610.340	26638.894
610.468	26838.745
610.596	26799.532
610.724	26834.468
610.852	26806.596
610.980	26791.766
611.108	26857.681
611.237	26803.638
611.365	26854.447
611.493	26850.447
611.621	26987.277
611.749	26983.191
611.877	27116.809
612.005	27087.702
612.133	27275.085
612.262	27365.660
612.390	27380.745
612.518	27394.489
612.646	27600.766
612.774	27588.000
612.902	27714.043
613.030	27959.149
613.158	28072.234
613.287	28149.468
613.415	28119.511
613.543	28020.936
613.671	28013.787
613.799	28171.298
613.927	28205.638
614.055	28124.851
614.183	28440.191
614.312	28365.298
614.440	28446.021
614.568	28518.000
614.696	28573.596
614.824	28848.617
614.952	28785.298
615.080	28933.660
615.208	29019.064
615.337	29097.404
615.465	29196.553
615.593	29364.787
615.721	29541.553
615.849	29651.851
615.977	29678.213
616.105	29648.404
616.233	29613.426
616.362	29753.617
616.490	29786.553
616.618	29782.894
616.746	29840.979
616.874	29901.191
617.002	29877.128
617.130	29899.681
617.258	30090.043
617.387	29997.128
617.515	30015.660
617.643	30006.915
617.771	29939.872
617.899	30004.319
618.027	29995.702
618.155	30019.936
618.283	30080.064
618.412	30127.915
618.540	30200.809
618.668	30103.340
618.796	30207.319
618.924	30303.787
619.052	30197.021
619.180	30194.979
619.308	30284.447
619.437	30211.872
619.565	30209.191
619.693	30126.532
619.821	30151.255
619.949	30213.000
620.077	30290.660
620.205	30211.128
620.333	30255.660
620.462	30321.702
620.590	30311.489
620.718	30164.936
620.846	30310.277
620.974	30239.872
621.102	30284.979
621.230	30281.085
621.358	30397.128
621.487	30290.362
621.615	30260.000
621.743	30363.894
621.871	30277.128
621.999	30398.596
622.127	30277.574
622.255	30345.340
622.383	30316.319
622.512	30258.043
622.640	30356.106
622.768	30226.170
622.896	30246.596
623.024	30225.532
623.152	30351.702
623.280	30358.404
623.408	30296.106
623.537	30335.809
623.665	30264.319
623.793	30368.766
623.921	30308.638
624.049	30237.957
624.177	30241.894
624.305	30315.426
624.433	30262.000
624.562	30403.383
624.690	30352.830
624.818	30298.298
624.946	30443.362
625.074	30233.128
625.202	30178.489
625.330	30261.617
625.458	30325.702
625.587	30223.702
625.715	30253.043
625.843	30342.128
625.971	30221.489
626.099	30226.064
626.227	30291.489
626.355	30182.170
626.483	30297.787
626.612	30140.766
626.740	30224.191
626.868	30349.915
626.996	30281.745
627.124	30267.915
627.252	30317.085
627.380	30333.638
627.508	30407.957
627.637	30211.277
627.765	30319.596
627.893	30450.872
628.021	30432.085
628.149	30733.766
628.277	30813.660
628.405	30795.404
628.533	30530.191
628.662	30636.787
628.790	30616.723
628.918	30719.660
629.046	30681.872
629.174	30928.383
629.302	31151.340
629.430	31011.277
629.558	30973.872
629.687	30939.872
629.815	31018.426
629.943	31064.489
630.071	31110.957
630.199	31170.064
630.327	31127.234
630.455	31262.681
630.583	31238.574
630.712	31288.638
630.840	31366.234
630.968	31396.021
631.096	31417.553
631.224	31372.149
631.352	31418.532
631.480	31430.723
631.608	31518.787
631.737	31596.021
631.865	31649.809
631.993	31601.043
632.121	31702.043
632.249	31635.447
632.377	31594.234
632.505	31630.213
632.633	31456.979
632.762	31550.915
632.890	31658.170
633.018	31436.468
633.146	31623.149
633.274	31333.489
633.402	31479.213
633.530	31342.766
633.658	31518.149
633.787	31265.043
633.915	31368.809
634.043	31264.021
634.171	31258.362
634.299	31145.936
634.427	31198.936
634.555	31119.255
634.683	31077.489
634.812	31093.404
634.940	31047.255
635.068	30937.106
635.196	30886.128
635.324	30895.638
635.452	30852.170
635.580	30793.000
635.708	30693.830
635.837	30720.043
635.965	30581.872
636.093	30425.574
636.221	30443.617
636.349	30411.553
636.477	30380.957
636.605	30404.043
636.733	30166.426
636.862	30114.277
636.990	30141.319
637.118	30071.234
637.246	30099.660
637.374	29969.043
637.502	30018.085
637.630	29918.277
637.758	29786.426
637.887	29764.362
638.015	29739.723
638.143	29675.298
638.271	29709.787
638.399	29560.574
638.527	29605.085
638.655	29599.894
638.783	29646.596
638.912	29522.596
639.040	29476.298
639.168	29538.979
639.296	29402.553
639.424	29551.000
639.552	29419.702
639.680	29530.617
639.808	29428.553
639.937	29332.511
640.065	29262.362
640.193	29404.809
640.321	29343.638
640.449	29409.128
640.577	29447.766
640.705	29412.915
640.833	29346.447
640.962	29266.553
641.090	29352.681
641.218	29373.277
641.346	29429.404
641.474	29459.213
641.602	29371.255
641.730	29406.532
641.858	29440.362
641.987	29398.723
642.115	29384.957
642.243	29459.787
642.371	29471.745
642.499	29467.660
642.627	29494.191
642.755	29458.277
642.883	29430.043
643.012	29435.979
643.140	29487.681
643.268	29475.298
643.396	29589.617
643.524	29605.234
643.652	29550.362
643.780	29469.213
643.908	29542.894
644.037	29648.723
644.165	29595.362
644.293	29519.170
644.421	29661.170
644.549	29596.702
644.677	29516.702
644.805	29557.277
644.933	29444.830
645.062	29540.830
645.190	29530.277
645.318	29543.106
645.446	29559.106
645.574	29472.745
645.702	29390.574
645.830	29547.957
645.958	29381.638
646.087	29570.191
646.215	29304.723
646.343	29531.298
646.471	29316.362
646.599	29287.511
646.727	29254.596
646.855	29166.766
646.983	29226.319
647.112	29201.213
647.240	29281.128
647.368	29087.702
647.496	29104.915
647.624	28989.043
647.752	28919.872
647.880	28948.255
648.008	28991.277
648.137	28949.489
648.265	28816.213
648.393	28779.191
648.521	28732.532
648.649	28613.064
648.777	28674.979
648.905	28550.128
649.033	28481.340
649.162	28481.915
649.290	28364.043
649.418	28236.936
649.546	28253.383
649.674	28162.000
649.802	28035.809
649.930	28212.979
650.058	27978.404
650.187	27938.979
650.315	27920.149
650.443	27819.702
650.571	27851.617
650.699	27830.681
650.827	27713.702
650.955	27644.915
651.083	27683.915
651.212	27622.234
651.340	27564.383
651.468	27530.191
651.596	27393.851
651.724	27299.511
651.852	27393.064
651.980	27282.787
652.108	27298.936
652.237	27232.170
652.365	27238.340
652.493	27052.128
652.621	27056.574
652.749	27131.234
652.877	26901.915
653.005	26927.340
653.133	26929.979
653.262	26876.660
653.390	26790.915
653.518	26859.468
653.646	26660.617
653.774	26802.170
653.902	26578.319
654.030	26611.894
654.158	26542.681
654.287	26519.745
654.415	26452.532
654.543	26459.489
654.671	26349.894
654.799	26330.149
654.927	26235.277
655.055	26191.277
655.183	26204.894
655.312	26213.766
655.440	26150.894
655.568	26018.638
655.696	25994.574
655.824	26108.298
655.952	25983.660
656.080	25852.106
656.208	25907.936
656.337	25702.766
656.465	25736.021
656.593	25614.298
656.721	25530.021
656.849	25550.000
656.977	25421.489
657.105	25282.787
657.233	25255.511
657.362	25226.702
657.490	25084.723
657.618	25142.851
657.746	25028.766
657.874	24950.340
658.002	24902.596
658.130	24842.638
658.258	24761.404
658.387	24755.851
658.515	24633.894
658.643	24571.234
658.771	24536.021
658.899	24507.298
659.027	24475.511
659.155	24472.894
659.283	24466.170
659.412	24264.149
659.540	24299.277
659.668	24098.745
659.796	24145.745
659.924	24137.766
660.052	24014.149
660.180	23963.681
660.308	23923.787
660.437	23881.489
660.565	23798.511
660.693	23726.872
660.821	23755.255
660.949	23691.660
661.077	23670.702
661.205	23640.830
661.333	23606.936
661.462	23657.936
661.590	23510.660
661.718	23568.532
661.846	23395.149
661.974	23490.128
662.102	23259.426
662.230	23296.830
662.358	23216.234
662.487	23161.957
662.615	23079.043
662.743	23048.149
662.871	23089.936
662.999	23045.553
663.127	22929.745
663.255	23062.085
663.383	22993.660
663.512	22891.915
663.640	22955.128
663.768	22871.319
663.896	22985.851
664.024	22931.128
664.152	22860.021
664.280	22956.574
664.408	22797.979
664.537	22815.894
664.665	22726.362
664.793	22696.213
664.921	22597.170
665.049	22638.106
665.177	22648.255
665.305	22630.426
665.433	22563.638
665.562	22488.447
665.690	22539.319
665.818	22621.745
665.946	22426.277
666.074	22408.043
666.202	22359.894
666.330	22414.319
666.458	22346.532
666.587	22233.277
666.715	22220.213
666.843	22239.426
666.971	22181.404
667.099	22115.447
667.227	22160.830
667.355	22110.979
667.483	22103.489
667.612	22088.447
667.740	21996.213
667.868	22074.021
667.996	21971.213
668.124	21903.106
668.252	21891.745
668.380	21784.170
668.508	21825.596
668.637	21804.426
668.765	21711.426
668.893	21667.745
669.021	21559.085
669.149	21577.128
669.277	21611.638
669.405	21496.043
669.533	21451.383
669.662	21673.894
669.790	21489.702
669.918	21463.915
670.046	21238.128
670.174	21306.128
670.302	21211.596
670.430	21096.702
670.558	21142.553
670.687	21033.532
670.815	21098.149
670.943	20920.936
671.071	20875.894
671.199	20767.809
671.327	20756.191
671.455	20723.638
671.583	20646.468
671.712	20704.298
671.840	20595.191
671.968	20498.617
672.096	20447.532
672.224	20356.255
672.352	20418.766
672.480	20237.915
672.608	20106.511
672.737	20068.149
672.865	20116.851
672.993	19928.723
673.121	19851.043
673.249	19858.277
673.377	19667.766
673.505	19623.064
673.633	19512.362
673.762	19439.702
673.890	19393.574
674.018	19578.809
674.146	19272.809
674.274	19239.340
674.402	19328.447
674.530	19057.468
674.658	18928.809
674.787	18937.936
674.915	18855.745
675.043	18885.170
675.171	18796.170
675.299	18618.830
675.427	18633.851
675.555	18453.915
675.683	18429.191
675.812	18370.979
675.940	18331.553
676.068	18265.191
676.196	18204.468
676.324	18092.255
676.452	18010.915
676.580	17899.511
676.708	17870.809
676.837	17881.702
676.965	17753.277
677.093	17727.745
677.221	17579.255
677.349	17620.149
677.477	17551.702
677.605	17395.021
677.733	17411.638
677.862	17251.979
677.990	17172.170
678.118	17169.191
678.246	17062.468
678.374	17090.574
678.502	16998.915
678.630	16953.872
678.758	16878.021
678.887	16804.532
679.015	16788.809
679.143	16694.532
679.271	16631.957
679.399	16616.511
679.527	16629.638
679.655	16476.064
679.783	16510.128
679.912	16475.447
680.040	16369.915
680.168	16284.915
680.296	16205.468
680.424	16200.660
680.552	16156.277
680.680	16183.851
680.808	16072.851
680.937	15984.362
681.065	15952.766
681.193	15964.766
681.321	15935.511
681.449	15836.809
681.577	15862.766
681.705	15820.723
681.833	15728.745
681.962	15621.404
682.090	15806.766
682.218	15651.894
682.346	15597.213
682.474	15555.383
682.602	15526.553
682.730	15529.277
682.858	15410.383
682.987	15468.894
683.115	15454.000
683.243	15331.723
683.371	15270.319
683.499	15310.915
683.627	15335.723
683.755	15324.681
683.883	15366.830
684.012	15218.426
684.140	15156.745
684.268	15093.745
684.396	15106.234
684.524	15115.723
684.652	15135.702
684.780	15050.723
684.908	15079.979
685.037	14930.532
685.165	14839.383
685.293	14835.596
685.421	14864.085
685.549	14725.915
685.677	14721.426
685.805	14869.170
685.933	14700.000
686.062	14560.894
686.190	14535.681
686.318	14543.404
686.446	14502.766
686.574	14395.085
686.702	14501.277
686.830	14304.957
686.958	14274.702
687.087	14266.638
687.215	14249.660
687.343	14191.638
687.471	14125.340
687.599	14057.277
687.727	14218.553
687.855	13984.617
687.983	14000.468
688.112	14088.362
688.240	13861.574
688.368	13805.149
688.496	13827.894
688.624	13820.043
688.752	13719.745
688.880	13697.191
689.008	13714.106
689.137	13615.553
689.265	13517.787
689.393	13469.532
689.521	13420.723
689.649	13457.936
689.777	13366.745
689.905	13312.745
690.033	13248.149
690.162	13220.489
690.290	13141.298
690.418	13130.234
690.546	13195.787
690.674	13150.447
690.802	12953.745
690.930	12940.809
691.058	12951.574
691.187	12855.234
691.315	12804.298
691.443	12864.553
691.571	12744.511
691.699	12722.957
691.827	12737.043
691.955	12584.851
692.083	12553.085
692.212	12668.915
692.340	12489.936
692.468	12509.830
692.596	12455.745
692.724	12473.489
692.852	12347.638
692.980	12371.574
693.108	12294.000
693.237	12160.745
693.365	12132.979
693.493	12046.936
693.621	12051.340
693.749	12009.957
693.877	11967.766
694.005	12027.106
694.133	11893.404
694.262	11921.021
694.390	11813.574
694.518	11784.532
694.646	11750.128
694.774	11688.553
694.902	11785.511
695.030	11666.064
695.158	11510.128
695.287	11557.149
695.415	11514.489
695.543	11423.532
695.671	11504.383
695.799	11387.064
695.927	11355.234
696.055	11306.000
696.183	11247.426
696.312	11199.404
696.440	11352.426
696.568	11175.383
696.696	11154.617
696.824	10973.766
696.952	11002.766
697.080	10982.234
697.208	10877.809
697.337	10926.957
697.465	10814.255
697.593	10734.830
697.721	10714.404
697.849	10701.936
697.977	10641.319
698.105	10641.213
698.233	10500.979
698.362	10519.745
698.490	10481.766
698.618	10476.149
698.746	10524.404
698.874	10384.979
699.002	10548.511
699.130	10287.638
699.258	10318.702
699.387	10155.596
699.515	10198.511
699.643	10146.426
699.771	10206.340
699.899	10048.596
700.027	10038.149
700.155	9968.021
700.283	9941.021
700.412	9924.340
700.540	9837.830
700.668	9789.766
700.796	9697.830
700.924	9752.489
701.052	9698.638
701.180	9762.362
701.308	9598.532
701.437	9483.745
701.565	9498.170
701.693	9426.851
701.821	9396.596
701.949	9353.362
702.077	9338.681
702.205	9277.702
702.333	9238.511
702.462	9179.681
702.590	9153.255
702.718	9070.702
702.846	9049.511
702.974	9044.830
703.102	8981.553
703.230	9026.681
703.358	8945.064
703.487	8811.064
703.615	8936.574
703.743	8686.915
703.871	8684.766
703.999	8660.404
704.127	8725.766
704.255	8461.447
704.383	8650.532
704.512	8453.213
704.640	8442.894
704.768	8275.404
704.896	8383.447
705.024	8243.149
705.152	8293.255
705.280	8188.468
705.408	8129.404
705.537	8093.340
705.665	7999.553
705.793	7972.915
705.921	7914.574
706.049	7936.170
706.177	7829.170
706.305	7859.511
706.433	7860.660
706.562	7769.936
706.690	7701.553
706.818	7628.702
706.946	7825.468
707.074	7597.298
707.202	7527.383
707.330	7583.915
707.458	7481.213
707.587	7389.149
707.715	7418.277
707.843	7419.511
707.971	7367.553
708.099	7368.000
708.227	7244.277
708.355	7197.340
708.483	7189.106
708.612	7089.915
708.740	7151.298
708.868	7175.553
708.996	7062.532
709.124	7107.809
709.252	6986.745
709.380	6917.830
709.508	6953.787
709.637	6874.596
709.765	6858.468
709.893	6851.851
710.021	6842.000
710.149	6799.043
710.277	6855.553
710.405	6696.596
710.533	6715.191
710.662	6671.000
710.790	6646.660
710.918	6674.787
711.046	6674.362
711.174	6570.894
711.302	6611.468
711.430	6674.298
711.558	6474.489
711.687	6476.234
711.815	6484.809
711.943	6449.021
712.071	6443.000
712.199	6428.340
712.327	6410.489
712.455	6310.957
712.583	6337.553
712.712	6277.191
712.840	6273.489
712.968	6217.851
713.096	6263.213
713.224	6137.191
713.352	6194.149
713.480	6114.787
713.608	6132.170
713.737	6113.447
713.865	6107.511
713.993	6116.766
714.121	6000.447
714.249	6001.511
714.377	6062.000
714.505	5984.511
714.633	6102.468
714.762	5990.830
714.890	5886.809
715.018	5921.170
715.146	5908.957
715.274	5894.979
715.402	6004.340
715.530	5863.149
715.658	5752.638
715.787	5760.277
715.915	5889.255
716.043	5716.957
716.171	5808.617
716.299	5810.660
716.427	5696.404
716.555	5645.170
716.683	5617.851
716.812	5599.681
716.940	5619.936
717.068	5503.638
717.196	5716.766
717.324	5624.532
717.452	5533.638
717.580	5484.723
717.708	5477.702
717.837	5459.894
717.965	5403.319
718.093	5415.702
718.221	5311.106
718.349	5378.426
718.477	5390.830
718.605	5365.681
718.733	5268.298
718.862	5271.000
718.990	5236.255
719.118	5236.021
719.246	5162.319
719.374	5231.128
719.502	5189.298
719.630	5283.851
719.758	5094.298
719.887	5053.298
720.015	5216.702
720.143	4994.787
720.271	4975.404
720.399	5002.574
720.527	5024.681
720.655	4998.043
720.783	5009.617
720.912	4911.064
721.040	4891.830
721.168	4799.915
721.296	4883.936
721.424	4803.191
721.552	4727.787
721.680	4737.936
721.808	4768.447
721.937	4695.149
722.065	4767.574
722.193	4797.745
722.321	4643.170
722.449	4633.936
722.577	4602.979
722.705	4537.340
722.833	4564.319
722.962	4558.362
723.090	4459.553
723.218	4427.957
723.346	4446.234
723.474	4403.319
723.602	4551.766
723.730	4482.170
723.858	4547.511
723.987	4417.553
724.115	4415.298
724.243	4314.191
724.371	4335.468
724.499	4338.234
724.627	4219.468
724.755	4219.872
724.883	4201.213
725.012	4184.553
725.140	4219.298
725.268	4148.957
725.396	4075.574
725.524	4103.723
725.652	4087.681
725.780	4066.957
725.908	4135.277
726.037	4162.617
726.165	3943.702
726.293	3953.894
726.421	3961.298
726.549	3915.532
726.677	3899.574
726.805	3891.404
726.933	3860.021
727.062	3894.702
727.190	3835.872
727.318	3776.043
727.446	3781.319
727.574	3765.511
727.702	3876.851
727.830	3720.894
727.958	3792.000
728.087	3703.745
728.215	3794.128
728.343	3780.809
