90pol_90_130_at_750.00nm_cut_at_984.50Y_01.dat
24.04.2023
10:45:13
cut middle at Y: 984.50
top cursor: 1008 down cursor: 961 mean of: 47 lines , 2560 datapoints
wavelength(nm)	intensity[arb. units]
585.996	20468.596
586.124	19875.383
586.252	19727.468
586.380	19812.787
586.508	19772.404
586.637	19870.404
586.765	19893.489
586.893	19945.915
587.021	19994.383
587.149	20116.915
587.277	20084.106
587.405	20190.553
587.533	20055.191
587.662	20313.723
587.790	20242.128
587.918	20174.617
588.046	20190.851
588.174	20139.660
588.302	20299.681
588.430	20184.830
588.558	20161.702
588.687	20278.660
588.815	20229.340
588.943	20274.745
589.071	20227.936
589.199	20318.936
589.327	20213.426
589.455	20195.234
589.583	20346.638
589.712	20331.596
589.840	20266.915
589.968	20276.468
590.096	20243.596
590.224	20238.362
590.352	20330.957
590.480	20289.319
590.608	20297.149
590.737	20360.511
590.865	20370.298
590.993	20308.106
591.121	20366.106
591.249	20384.574
591.377	20321.574
591.505	20299.404
591.633	20430.681
591.762	20378.787
591.890	20479.851
592.018	20357.574
592.146	20379.596
592.274	20325.638
592.402	20397.489
592.530	20419.894
592.658	20715.362
592.787	20510.191
592.915	20731.915
593.043	20615.723
593.171	20751.234
593.299	20796.043
593.427	20808.000
593.555	20899.723
593.683	20843.362
593.812	21011.362
593.940	20969.277
594.068	21068.553
594.196	21139.255
594.324	21161.191
594.452	21193.170
594.580	21304.191
594.708	21302.128
594.837	21344.702
594.965	21386.787
595.093	21561.362
595.221	21516.383
595.349	21701.128
595.477	21639.766
595.605	21695.447
595.733	21654.340
595.862	22009.574
595.990	21854.191
596.118	21902.681
596.246	22051.383
596.374	21961.489
596.502	22037.170
596.630	22061.426
596.758	22101.979
596.887	22094.617
597.015	22095.468
597.143	22153.617
597.271	22236.723
597.399	22134.894
597.527	22169.404
597.655	22259.170
597.783	22226.894
597.912	22192.957
598.040	22152.277
598.168	22201.319
598.296	22218.766
598.424	22191.957
598.552	22244.596
598.680	22143.000
598.808	22235.489
598.937	22176.340
599.065	22090.723
599.193	22136.957
599.321	22135.021
599.449	22047.426
599.577	22101.277
599.705	22117.660
599.833	22038.532
599.962	22062.681
600.090	22071.277
600.218	22145.766
600.346	22171.702
600.474	22170.191
600.602	22158.957
600.730	22191.979
600.858	22281.298
600.987	22385.894
601.115	22336.787
601.243	22438.979
601.371	22448.553
601.499	22486.617
601.627	22565.170
601.755	22594.723
601.883	22738.830
602.012	22825.447
602.140	22776.149
602.268	22990.298
602.396	22934.340
602.524	23141.702
602.652	23177.511
602.780	23242.106
602.908	23352.745
603.037	23415.553
603.165	23465.681
603.293	23592.340
603.421	23651.043
603.549	23766.106
603.677	23895.468
603.805	24024.404
603.933	24090.319
604.062	24215.213
604.190	24310.787
604.318	24472.468
604.446	24543.468
604.574	24641.234
604.702	24720.234
604.830	24825.596
604.958	24815.191
605.087	24953.553
605.215	25083.660
605.343	25127.723
605.471	25221.043
605.599	25340.681
605.727	25351.213
605.855	25431.957
605.983	25511.511
606.112	25548.745
606.240	25533.085
606.368	25597.213
606.496	25822.723
606.624	25660.617
606.752	25804.511
606.880	25883.596
607.008	26019.489
607.137	25913.128
607.265	25729.851
607.393	25809.064
607.521	25916.213
607.649	25870.511
607.777	25829.745
607.905	25877.936
608.033	25804.383
608.162	25822.340
608.290	25855.596
608.418	25758.809
608.546	25809.489
608.674	25739.745
608.802	25763.489
608.930	25772.064
609.058	25776.553
609.187	25875.468
609.315	25803.298
609.443	25767.681
609.571	25824.830
609.699	25760.936
609.827	25768.915
609.955	25827.383
610.083	25686.532
610.212	25782.298
610.340	25659.106
610.468	25824.021
610.596	25777.021
610.724	25821.809
610.852	25767.851
610.980	25816.957
611.108	25820.894
611.237	25742.723
611.365	25856.213
611.493	25891.106
611.621	25907.660
611.749	25957.830
611.877	26062.511
612.005	26065.830
612.133	26137.894
612.262	26227.298
612.390	26168.723
612.518	26298.809
612.646	26437.809
612.774	26423.128
612.902	26551.851
613.030	26629.277
613.158	26816.638
613.287	26893.298
613.415	26743.149
613.543	26774.000
613.671	26733.085
613.799	26999.383
613.927	26815.085
614.055	26916.532
614.183	27111.426
614.312	26978.894
614.440	27119.043
614.568	27123.596
614.696	27227.447
614.824	27462.872
614.952	27391.979
615.080	27464.064
615.208	27633.170
615.337	27678.319
615.465	27773.745
615.593	28009.787
615.721	28067.213
615.849	28171.872
615.977	28242.979
616.105	28238.277
616.233	28133.043
616.362	28259.489
616.490	28280.638
616.618	28301.170
616.746	28391.915
616.874	28431.681
617.002	28376.255
617.130	28461.106
617.258	28658.596
617.387	28522.915
617.515	28517.702
617.643	28608.851
617.771	28542.255
617.899	28585.085
618.027	28608.638
618.155	28649.383
618.283	28668.043
618.412	28726.532
618.540	28710.532
618.668	28754.085
618.796	28827.426
618.924	28964.468
619.052	28820.064
619.180	28875.872
619.308	28885.021
619.437	28951.234
619.565	28952.638
619.693	28904.128
619.821	28869.766
619.949	28984.915
620.077	29036.660
620.205	29079.447
620.333	29103.872
620.462	29088.553
620.590	29141.447
620.718	29108.064
620.846	29132.128
620.974	29145.404
621.102	29146.553
621.230	29099.979
621.358	29250.617
621.487	29136.894
621.615	29121.362
621.743	29204.319
621.871	29257.255
621.999	29236.574
622.127	29162.915
622.255	29191.149
622.383	29213.170
622.512	29116.766
622.640	29300.532
622.768	29173.574
622.896	29186.511
623.024	29194.277
623.152	29181.043
623.280	29156.596
623.408	29207.574
623.537	29171.574
623.665	29151.362
623.793	29178.553
623.921	29123.468
624.049	29083.511
624.177	29105.745
624.305	29077.447
624.433	29077.021
624.562	29211.851
624.690	29102.936
624.818	29095.872
624.946	29201.128
625.074	29111.426
625.202	29067.915
625.330	29028.106
625.458	29039.574
625.587	29083.915
625.715	28973.021
625.843	29150.000
625.971	29104.085
626.099	29015.957
626.227	29046.894
626.355	28936.723
626.483	29148.681
626.612	29029.915
626.740	29039.213
626.868	29059.511
626.996	29102.021
627.124	29061.447
627.252	29122.447
627.380	29157.021
627.508	29157.745
627.637	29100.383
627.765	29187.468
627.893	29232.787
628.021	29311.255
628.149	29517.213
628.277	29634.319
628.405	29667.021
628.533	29453.957
628.662	29408.213
628.790	29403.106
628.918	29459.404
629.046	29553.596
629.174	29776.426
629.302	30005.660
629.430	29859.851
629.558	29649.574
629.687	29767.234
629.815	29841.277
629.943	29971.894
630.071	29982.362
630.199	30005.021
630.327	30094.362
630.455	30084.362
630.583	30112.766
630.712	30168.915
630.840	30181.702
630.968	30240.085
631.096	30190.596
631.224	30279.128
631.352	30260.830
631.480	30241.553
631.608	30425.340
631.737	30524.255
631.865	30533.447
631.993	30477.213
632.121	30568.872
632.249	30517.702
632.377	30496.128
632.505	30514.638
632.633	30293.340
632.762	30417.638
632.890	30528.851
633.018	30329.043
633.146	30535.064
633.274	30310.830
633.402	30396.128
633.530	30318.255
633.658	30489.596
633.787	30296.638
633.915	30331.404
634.043	30199.170
634.171	30285.702
634.299	30225.638
634.427	30139.787
634.555	30138.851
634.683	30145.596
634.812	30069.277
634.940	30068.894
635.068	30040.298
635.196	29977.064
635.324	29954.532
635.452	29893.617
635.580	29927.617
635.708	29833.830
635.837	29907.617
635.965	29808.723
636.093	29606.043
636.221	29687.340
636.349	29679.255
636.477	29632.489
636.605	29757.447
636.733	29475.723
636.862	29490.830
636.990	29465.362
637.118	29382.170
637.246	29402.106
637.374	29291.000
637.502	29384.255
637.630	29255.979
637.758	29191.787
637.887	29225.362
638.015	29094.149
638.143	29137.362
638.271	29050.021
638.399	29047.404
638.527	29082.149
638.655	29048.000
638.783	29151.234
638.912	29011.638
639.040	28981.894
639.168	28954.957
639.296	28980.851
639.424	29028.553
639.552	28871.298
639.680	29067.681
639.808	28881.915
639.937	28833.830
640.065	28804.468
640.193	28905.532
640.321	28804.787
640.449	28840.830
640.577	29006.043
640.705	28795.255
640.833	28870.830
640.962	28739.830
641.090	28743.702
641.218	28811.277
641.346	28860.106
641.474	28850.149
641.602	28752.170
641.730	28808.319
641.858	28779.021
641.987	28836.234
642.115	28770.787
642.243	28906.830
642.371	28788.000
642.499	28824.723
642.627	28888.489
642.755	28904.404
642.883	28836.128
643.012	28891.319
643.140	28878.000
643.268	28923.128
643.396	28933.979
643.524	29021.298
643.652	28895.489
643.780	28785.766
643.908	28950.106
644.037	28982.149
644.165	28974.638
644.293	28928.979
644.421	28975.149
644.549	29004.340
644.677	29011.085
644.805	28963.128
644.933	28898.851
645.062	28900.383
645.190	28894.851
645.318	29009.213
645.446	28881.851
645.574	28904.319
645.702	28789.404
645.830	28976.851
645.958	28732.426
646.087	28939.468
646.215	28663.787
646.343	28890.851
646.471	28679.872
646.599	28628.106
646.727	28644.638
646.855	28569.660
646.983	28648.128
647.112	28607.489
647.240	28730.660
647.368	28483.638
647.496	28549.043
647.624	28454.404
647.752	28444.085
647.880	28371.043
648.008	28367.255
648.137	28364.489
648.265	28353.851
648.393	28273.809
648.521	28236.362
648.649	28225.128
648.777	28212.660
648.905	28047.043
649.033	28023.553
649.162	27970.213
649.290	27947.447
649.418	27865.298
649.546	27877.766
649.674	27725.830
649.802	27639.191
649.930	27818.021
650.058	27663.702
650.187	27614.447
650.315	27574.830
650.443	27490.660
650.571	27456.170
650.699	27411.702
650.827	27372.149
650.955	27376.617
651.083	27367.170
651.212	27270.979
651.340	27254.298
651.468	27181.170
651.596	27107.511
651.724	26985.936
651.852	27124.277
651.980	26987.830
652.108	26974.170
652.237	26891.085
652.365	26909.213
652.493	26834.936
652.621	26788.170
652.749	26823.894
652.877	26734.426
653.005	26662.234
653.133	26677.468
653.262	26663.702
653.390	26596.574
653.518	26568.298
653.646	26576.404
653.774	26610.596
653.902	26398.447
654.030	26378.468
654.158	26392.468
654.287	26375.021
654.415	26257.489
654.543	26260.660
654.671	26157.979
654.799	26163.617
654.927	26046.213
655.055	26031.638
655.183	26029.489
655.312	25948.468
655.440	25889.596
655.568	25746.191
655.696	25802.000
655.824	25804.234
655.952	25719.681
656.080	25633.489
656.208	25675.234
656.337	25471.234
656.465	25522.660
656.593	25438.872
656.721	25271.787
656.849	25335.553
656.977	25303.723
657.105	25231.447
657.233	25136.915
657.362	25044.447
657.490	24966.404
657.618	24914.574
657.746	24929.936
657.874	24826.213
658.002	24789.915
658.130	24713.489
658.258	24614.723
658.387	24616.085
658.515	24455.106
658.643	24528.319
658.771	24502.489
658.899	24474.404
659.027	24390.532
659.155	24328.213
659.283	24389.511
659.412	24223.383
659.540	24202.787
659.668	24030.553
659.796	24025.489
659.924	24042.894
660.052	23958.532
660.180	23827.830
660.308	23850.191
660.437	23793.957
660.565	23712.872
660.693	23644.766
660.821	23636.809
660.949	23526.766
661.077	23561.128
661.205	23600.851
661.333	23406.872
661.462	23589.426
661.590	23437.851
661.718	23488.723
661.846	23335.872
661.974	23320.213
662.102	23162.660
662.230	23249.383
662.358	23102.404
662.487	23145.745
662.615	22963.000
662.743	22987.234
662.871	23028.532
662.999	22980.511
663.127	22922.404
663.255	22958.809
663.383	22974.957
663.512	22889.596
663.640	22906.085
663.768	22836.489
663.896	22871.489
664.024	22814.532
664.152	22863.851
664.280	22906.298
664.408	22859.915
664.537	22778.872
664.665	22761.191
664.793	22657.340
664.921	22653.191
665.049	22688.000
665.177	22644.574
665.305	22612.106
665.433	22603.745
665.562	22584.043
665.690	22562.936
665.818	22661.468
665.946	22565.277
666.074	22478.787
666.202	22500.021
666.330	22492.404
666.458	22418.809
666.587	22362.234
666.715	22412.979
666.843	22425.064
666.971	22307.894
667.099	22347.872
667.227	22312.298
667.355	22277.404
667.483	22263.170
667.612	22242.596
667.740	22270.915
667.868	22268.638
667.996	22167.723
668.124	22097.894
668.252	22013.830
668.380	22070.532
668.508	22062.404
668.637	22027.149
668.765	21967.830
668.893	21970.745
669.021	21897.298
669.149	21867.383
669.277	21909.426
669.405	21826.894
669.533	21836.404
669.662	22035.404
669.790	21723.532
669.918	21750.064
670.046	21633.447
670.174	21615.894
670.302	21502.979
670.430	21488.447
670.558	21437.234
670.687	21311.213
670.815	21380.255
670.943	21149.043
671.071	21145.787
671.199	21061.021
671.327	21074.638
671.455	21027.021
671.583	20913.468
671.712	20989.766
671.840	20793.128
671.968	20629.660
672.096	20647.128
672.224	20574.021
672.352	20686.128
672.480	20507.021
672.608	20436.277
672.737	20280.170
672.865	20413.021
672.993	20141.064
673.121	20078.255
673.249	19935.596
673.377	19924.830
673.505	19851.553
673.633	19777.000
673.762	19654.043
673.890	19616.170
674.018	19803.872
674.146	19501.319
674.274	19437.489
674.402	19543.660
674.530	19391.596
674.658	19222.936
674.787	19147.894
674.915	19141.872
675.043	19152.979
675.171	19094.957
675.299	18899.745
675.427	18871.468
675.555	18747.213
675.683	18646.298
675.812	18674.957
675.940	18622.532
676.068	18524.596
676.196	18471.723
676.324	18413.787
676.452	18342.468
676.580	18173.213
676.708	18212.128
676.837	18123.532
676.965	18151.617
677.093	18009.660
677.221	17938.979
677.349	17957.106
677.477	17848.085
677.605	17762.936
677.733	17760.277
677.862	17490.362
677.990	17529.043
678.118	17465.660
678.246	17365.638
678.374	17442.319
678.502	17231.043
678.630	17235.511
678.758	17170.213
678.887	17065.362
679.015	17052.553
679.143	17023.362
679.271	16948.830
679.399	16943.766
679.527	16842.596
679.655	16754.745
679.783	16741.064
679.912	16778.191
680.040	16642.532
680.168	16605.809
680.296	16527.234
680.424	16508.319
680.552	16454.766
680.680	16453.809
680.808	16393.234
680.937	16296.021
681.065	16201.766
681.193	16179.851
681.321	16206.638
681.449	16191.638
681.577	16148.298
681.705	16086.681
681.833	15982.681
681.962	15979.191
682.090	16098.404
682.218	15923.426
682.346	15897.149
682.474	15866.489
682.602	15785.617
682.730	15819.596
682.858	15702.957
682.987	15750.511
683.115	15716.894
683.243	15618.596
683.371	15619.872
683.499	15650.596
683.627	15629.979
683.755	15619.872
683.883	15626.745
684.012	15462.447
684.140	15413.723
684.268	15422.106
684.396	15375.213
684.524	15357.213
684.652	15347.383
684.780	15323.213
684.908	15290.745
685.037	15214.872
685.165	15101.255
685.293	15093.426
685.421	15233.043
685.549	15080.128
685.677	15029.468
685.805	15123.468
685.933	15001.191
686.062	14900.489
686.190	14810.681
686.318	14861.936
686.446	14777.830
686.574	14714.255
686.702	14833.596
686.830	14726.660
686.958	14697.000
687.087	14663.936
687.215	14606.787
687.343	14534.319
687.471	14476.830
687.599	14421.915
687.727	14588.915
687.855	14436.660
687.983	14407.957
688.112	14422.915
688.240	14314.787
688.368	14158.383
688.496	14197.234
688.624	14196.787
688.752	14038.723
688.880	14086.128
689.008	14039.383
689.137	13992.766
689.265	13920.681
689.393	13845.894
689.521	13783.532
689.649	13752.298
689.777	13752.000
689.905	13702.383
690.033	13625.255
690.162	13639.809
690.290	13572.170
690.418	13511.021
690.546	13525.681
690.674	13497.021
690.802	13356.957
690.930	13361.830
691.058	13327.021
691.187	13252.277
691.315	13219.383
691.443	13254.489
691.571	13147.340
691.699	13137.149
691.827	13091.894
691.955	13005.021
692.083	12973.383
692.212	13034.021
692.340	12820.170
692.468	12824.787
692.596	12819.766
692.724	12887.851
692.852	12635.043
692.980	12702.064
693.108	12624.638
693.237	12522.851
693.365	12493.596
693.493	12441.064
693.621	12402.106
693.749	12327.723
693.877	12292.128
694.005	12341.872
694.133	12202.851
694.262	12199.085
694.390	12134.468
694.518	12124.957
694.646	12053.702
694.774	12048.915
694.902	12077.234
695.030	12008.255
695.158	11815.766
695.287	11862.213
695.415	11780.362
695.543	11755.660
695.671	11840.851
695.799	11697.638
695.927	11623.255
696.055	11583.021
696.183	11517.872
696.312	11470.000
696.440	11604.766
696.568	11510.000
696.696	11504.660
696.824	11308.617
696.952	11303.255
697.080	11289.234
697.208	11152.872
697.337	11231.702
697.465	11160.532
697.593	11027.851
697.721	11059.085
697.849	11058.553
697.977	11003.170
698.105	10922.128
698.233	10886.851
698.362	10889.979
698.490	10792.043
698.618	10809.149
698.746	10851.489
698.874	10772.277
699.002	10881.745
699.130	10676.383
699.258	10646.745
699.387	10532.383
699.515	10520.170
699.643	10496.894
699.771	10534.596
699.899	10385.447
700.027	10429.340
700.155	10335.681
700.283	10320.468
700.412	10268.234
700.540	10180.021
700.668	10193.277
700.796	10141.170
700.924	10122.894
701.052	10050.043
701.180	10108.383
701.308	9968.638
701.437	9860.426
701.565	9849.723
701.693	9796.979
701.821	9768.255
701.949	9719.043
702.077	9702.085
702.205	9586.383
702.333	9556.298
702.462	9541.702
702.590	9464.894
702.718	9399.234
702.846	9368.128
702.974	9330.851
703.102	9363.128
703.230	9331.064
703.358	9297.255
703.487	9167.979
703.615	9271.489
703.743	9078.638
703.871	8984.809
703.999	8992.936
704.127	9041.213
704.255	8796.660
704.383	8976.298
704.512	8795.170
704.640	8759.000
704.768	8636.191
704.896	8698.766
705.024	8554.936
705.152	8653.511
705.280	8512.936
705.408	8459.872
705.537	8394.362
705.665	8329.574
705.793	8316.681
705.921	8274.000
706.049	8229.468
706.177	8174.319
706.305	8143.596
706.433	8182.191
706.562	8071.064
706.690	8013.128
706.818	7931.660
706.946	8154.085
707.074	7891.723
707.202	7867.021
707.330	7914.149
707.458	7819.979
707.587	7746.660
707.715	7714.553
707.843	7691.362
707.971	7694.277
708.099	7709.000
708.227	7563.787
708.355	7519.000
708.483	7478.979
708.612	7449.170
708.740	7445.064
708.868	7508.830
708.996	7428.298
709.124	7392.532
709.252	7301.128
709.380	7272.106
709.508	7261.255
709.637	7232.660
709.765	7200.149
709.893	7174.851
710.021	7168.447
710.149	7103.234
710.277	7111.213
710.405	7000.277
710.533	7039.213
710.662	6969.426
710.790	6964.723
710.918	6948.128
711.046	6920.128
711.174	6873.149
711.302	6875.319
711.430	6930.745
711.558	6760.362
711.687	6759.213
711.815	6769.872
711.943	6705.383
712.071	6717.553
712.199	6697.468
712.327	6661.149
712.455	6581.553
712.583	6585.766
712.712	6559.681
712.840	6537.660
712.968	6542.553
713.096	6539.872
713.224	6416.766
713.352	6444.894
713.480	6424.021
713.608	6396.000
713.737	6398.362
713.865	6397.851
713.993	6407.894
714.121	6315.681
714.249	6332.957
714.377	6370.596
714.505	6278.340
714.633	6405.064
714.762	6236.191
714.890	6191.574
715.018	6196.340
715.146	6191.255
715.274	6212.532
715.402	6297.170
715.530	6204.447
715.658	6036.511
715.787	6054.809
715.915	6181.277
716.043	6001.362
716.171	6084.383
716.299	6069.809
716.427	5967.638
716.555	5896.298
716.683	5914.809
716.812	5895.383
716.940	5902.681
717.068	5807.596
717.196	5962.319
717.324	5914.191
717.452	5782.106
717.580	5741.383
717.708	5749.766
717.837	5774.340
717.965	5663.298
718.093	5688.149
718.221	5616.979
718.349	5630.660
718.477	5606.532
718.605	5640.979
718.733	5547.128
718.862	5541.532
718.990	5505.979
719.118	5512.255
719.246	5427.255
719.374	5506.766
719.502	5413.021
719.630	5557.532
719.758	5347.447
719.887	5333.979
720.015	5502.426
720.143	5247.766
720.271	5243.447
720.399	5264.191
720.527	5278.191
720.655	5261.979
720.783	5265.957
720.912	5149.043
721.040	5154.021
721.168	5083.340
721.296	5122.851
721.424	5056.830
721.552	4989.128
721.680	4958.426
721.808	4996.000
721.937	4955.085
722.065	5030.340
722.193	5010.489
722.321	4874.617
722.449	4856.872
722.577	4805.106
722.705	4791.213
722.833	4833.638
722.962	4815.979
723.090	4698.979
723.218	4660.702
723.346	4688.447
723.474	4662.745
723.602	4774.021
723.730	4700.638
723.858	4739.979
723.987	4643.596
724.115	4688.574
724.243	4569.787
724.371	4590.723
724.499	4575.170
724.627	4479.362
724.755	4465.979
724.883	4444.745
725.012	4394.106
725.140	4439.085
725.268	4385.957
725.396	4313.638
725.524	4307.489
725.652	4333.745
725.780	4267.000
725.908	4329.574
726.037	4420.745
726.165	4189.383
726.293	4171.766
726.421	4139.404
726.549	4123.723
726.677	4117.787
726.805	4092.532
726.933	4065.660
727.062	4111.574
727.190	4074.404
727.318	3991.106
727.446	4021.340
727.574	3984.043
727.702	4089.021
727.830	3907.830
727.958	3984.362
728.087	3933.064
728.215	4012.809
