dark count_at_750.00nm_cut_at_984.50Y_01.dat
24.04.2023
12:22:44
cut middle at Y: 984.50
top cursor: 1008 down cursor: 961 mean of: 47 lines , 2560 datapoints
wavelength(nm)	intensity[arb. units]
585.996	286.277
586.124	276.043
586.252	270.298
586.380	258.766
586.508	252.957
586.637	259.596
586.765	259.979
586.893	256.660
587.021	252.277
587.149	267.213
587.277	262.957
587.405	270.894
587.533	255.660
587.662	274.447
587.790	276.511
587.918	266.872
588.046	252.511
588.174	260.000
588.302	283.468
588.430	284.170
588.558	248.596
588.687	243.809
588.815	321.872
588.943	267.681
589.071	258.596
589.199	285.106
589.327	261.532
589.455	247.170
589.583	260.936
589.712	283.553
589.840	255.085
589.968	246.532
590.096	249.532
590.224	237.766
590.352	262.660
590.480	252.723
590.608	243.213
590.737	243.511
590.865	259.085
590.993	252.681
591.121	273.915
591.249	267.660
591.377	253.255
591.505	258.362
591.633	243.170
591.762	238.170
591.890	253.191
592.018	243.702
592.146	254.511
592.274	263.128
592.402	250.702
592.530	244.234
592.658	303.468
592.787	256.426
592.915	266.085
593.043	233.723
593.171	242.745
593.299	259.043
593.427	243.660
593.555	266.383
593.683	250.830
593.812	255.191
593.940	248.553
594.068	246.277
594.196	263.872
594.324	238.830
594.452	233.574
594.580	263.043
594.708	247.234
594.837	244.468
594.965	236.085
595.093	232.447
595.221	242.553
595.349	251.936
595.477	285.298
595.605	245.149
595.733	249.383
595.862	249.064
595.990	221.255
596.118	259.638
596.246	218.532
596.374	275.617
596.502	279.064
596.630	241.170
596.758	245.660
596.887	247.936
597.015	261.340
597.143	236.064
597.271	268.894
597.399	289.149
597.527	237.894
597.655	230.489
597.783	241.553
597.912	226.979
598.040	252.447
598.168	243.128
598.296	262.000
598.424	240.383
598.552	247.447
598.680	240.426
598.808	242.702
598.937	261.383
599.065	237.128
599.193	240.043
599.321	252.234
599.449	249.617
599.577	226.213
599.705	243.234
599.833	231.681
599.962	246.574
600.090	232.830
600.218	246.660
600.346	247.872
600.474	232.723
600.602	234.596
600.730	237.255
600.858	280.234
600.987	248.000
601.115	225.936
601.243	228.277
601.371	244.085
601.499	231.362
601.627	249.106
601.755	259.191
601.883	255.426
602.012	244.426
602.140	240.851
602.268	256.021
602.396	257.766
602.524	258.660
602.652	255.213
602.780	251.106
602.908	254.617
603.037	240.149
603.165	226.809
603.293	236.085
603.421	224.681
603.549	235.340
603.677	294.745
603.805	233.809
603.933	239.660
604.062	239.234
604.190	247.617
604.318	232.574
604.446	254.787
604.574	237.660
604.702	250.660
604.830	233.532
604.958	235.447
605.087	244.362
605.215	235.638
605.343	260.213
605.471	220.106
605.599	300.021
605.727	238.596
605.855	275.809
605.983	231.170
606.112	257.468
606.240	237.191
606.368	246.277
606.496	265.340
606.624	244.617
606.752	257.638
606.880	241.596
607.008	236.766
607.137	220.957
607.265	225.894
607.393	237.128
607.521	249.617
607.649	281.894
607.777	237.957
607.905	228.553
608.033	226.106
608.162	294.043
608.290	231.723
608.418	236.362
608.546	243.574
608.674	239.681
608.802	241.596
608.930	227.553
609.058	247.128
609.187	290.085
609.315	232.617
609.443	236.191
609.571	272.915
609.699	287.511
609.827	258.298
609.955	240.149
610.083	248.915
610.212	234.723
610.340	223.468
610.468	222.872
610.596	251.085
610.724	218.553
610.852	264.511
610.980	221.915
611.108	240.191
611.237	231.660
611.365	257.383
611.493	224.936
611.621	255.979
611.749	242.021
611.877	236.702
612.005	237.234
612.133	248.766
612.262	227.106
612.390	221.404
612.518	260.723
612.646	233.170
612.774	257.894
612.902	225.787
613.030	226.191
613.158	263.979
613.287	240.340
613.415	242.553
613.543	219.681
613.671	223.000
613.799	290.681
613.927	226.574
614.055	232.809
614.183	226.191
614.312	235.830
614.440	225.511
614.568	230.723
614.696	290.447
614.824	234.532
614.952	222.957
615.080	233.170
615.208	222.404
615.337	236.191
615.465	224.894
615.593	244.638
615.721	245.532
615.849	236.532
615.977	241.362
616.105	210.000
616.233	233.766
616.362	224.426
616.490	258.830
616.618	243.213
616.746	222.362
616.874	234.553
617.002	223.553
617.130	230.362
617.258	247.064
617.387	224.255
617.515	229.404
617.643	233.596
617.771	212.702
617.899	241.128
618.027	239.894
618.155	231.702
618.283	233.489
618.412	241.021
618.540	217.191
618.668	218.383
618.796	244.213
618.924	241.936
619.052	220.894
619.180	227.787
619.308	238.170
619.437	235.723
619.565	236.447
619.693	241.787
619.821	225.681
619.949	223.957
620.077	231.106
620.205	246.936
620.333	253.617
620.462	227.894
620.590	275.234
620.718	252.085
620.846	237.468
620.974	241.191
621.102	228.957
621.230	229.340
621.358	303.085
621.487	234.489
621.615	228.702
621.743	239.532
621.871	228.787
621.999	231.915
622.127	227.894
622.255	216.404
622.383	223.532
622.512	220.000
622.640	249.298
622.768	228.809
622.896	217.489
623.024	232.213
623.152	241.787
623.280	239.553
623.408	232.106
623.537	241.915
623.665	228.681
623.793	217.723
623.921	237.319
624.049	225.936
624.177	222.532
624.305	210.277
624.433	223.915
624.562	236.936
624.690	229.404
624.818	237.702
624.946	219.191
625.074	228.298
625.202	242.830
625.330	231.830
625.458	230.170
625.587	221.915
625.715	221.511
625.843	226.574
625.971	249.319
626.099	309.149
626.227	231.213
626.355	212.681
626.483	221.745
626.612	232.766
626.740	234.979
626.868	249.596
626.996	249.255
627.124	221.894
627.252	217.064
627.380	227.532
627.508	240.128
627.637	227.447
627.765	220.511
627.893	253.617
628.021	270.766
628.149	445.979
628.277	523.064
628.405	438.234
628.533	276.702
628.662	231.000
628.790	220.191
628.918	242.043
629.046	234.617
629.174	330.872
629.302	423.957
629.430	360.915
629.558	239.170
629.687	239.106
629.815	250.638
629.943	234.872
630.071	233.574
630.199	218.191
630.327	232.511
630.455	244.936
630.583	272.617
630.712	227.979
630.840	250.830
630.968	276.681
631.096	213.319
631.224	229.894
631.352	276.340
631.480	239.234
631.608	282.298
631.737	306.000
631.865	224.723
631.993	223.553
632.121	267.766
632.249	220.596
632.377	230.043
632.505	235.766
632.633	223.043
632.762	226.894
632.890	225.447
633.018	227.170
633.146	269.043
633.274	222.830
633.402	237.255
633.530	235.468
633.658	246.596
633.787	215.574
633.915	230.064
634.043	226.830
634.171	275.340
634.299	223.979
634.427	211.532
634.555	239.298
634.683	230.213
634.812	236.362
634.940	233.723
635.068	221.404
635.196	226.362
635.324	241.362
635.452	251.426
635.580	243.638
635.708	218.064
635.837	218.021
635.965	249.000
636.093	211.681
636.221	236.660
636.349	243.362
636.477	238.426
636.605	219.383
636.733	217.149
636.862	280.277
636.990	227.149
637.118	225.085
637.246	223.915
637.374	206.298
637.502	237.149
637.630	227.681
637.758	229.702
637.887	217.851
638.015	234.660
638.143	251.021
638.271	229.149
638.399	216.574
638.527	217.617
638.655	222.404
638.783	240.979
638.912	217.574
639.040	235.255
639.168	232.489
639.296	239.340
639.424	272.830
639.552	229.809
639.680	396.596
639.808	243.766
639.937	228.851
640.065	221.234
640.193	220.170
640.321	228.957
640.449	238.809
640.577	241.915
640.705	215.404
640.833	242.872
640.962	215.447
641.090	238.979
641.218	213.617
641.346	218.851
641.474	212.319
641.602	252.128
641.730	225.277
641.858	245.809
641.987	225.830
642.115	224.553
642.243	223.489
642.371	218.617
642.499	226.319
642.627	242.213
642.755	236.596
642.883	217.468
643.012	242.149
643.140	234.000
643.268	240.043
643.396	235.000
643.524	223.213
643.652	226.447
643.780	238.021
643.908	321.511
644.037	219.745
644.165	218.468
644.293	227.000
644.421	239.106
644.549	237.043
644.677	255.234
644.805	238.489
644.933	213.915
645.062	232.979
645.190	215.191
645.318	220.468
645.446	213.681
645.574	240.681
645.702	224.468
645.830	263.872
645.958	202.766
646.087	240.064
646.215	214.404
646.343	224.319
646.471	229.809
646.599	241.043
646.727	209.106
646.855	216.766
646.983	231.809
647.112	231.362
647.240	225.106
647.368	229.000
647.496	225.681
647.624	240.979
647.752	216.298
647.880	240.085
648.008	239.213
648.137	218.064
648.265	233.766
648.393	254.277
648.521	241.213
648.649	231.809
648.777	220.383
648.905	231.830
649.033	216.574
649.162	217.149
649.290	280.553
649.418	211.213
649.546	235.404
649.674	238.404
649.802	216.447
649.930	225.149
650.058	277.085
650.187	229.404
650.315	206.915
650.443	258.489
650.571	232.255
650.699	241.404
650.827	230.872
650.955	221.340
651.083	236.085
651.212	246.255
651.340	218.128
651.468	211.213
651.596	209.426
651.724	230.532
651.852	230.553
651.980	242.106
652.108	241.489
652.237	219.979
652.365	230.596
652.493	238.234
652.621	228.128
652.749	234.255
652.877	213.468
653.005	225.532
653.133	222.468
653.262	238.830
653.390	235.787
653.518	245.234
653.646	236.511
653.774	245.191
653.902	229.426
654.030	242.830
654.158	211.766
654.287	224.851
654.415	228.915
654.543	245.851
654.671	233.894
654.799	210.021
654.927	237.766
655.055	213.894
655.183	216.979
655.312	225.447
655.440	270.149
655.568	232.617
655.696	224.170
655.824	309.596
655.952	277.298
656.080	241.957
656.208	238.851
656.337	253.170
656.465	236.638
656.593	232.766
656.721	213.851
656.849	210.021
656.977	244.277
657.105	231.191
657.233	231.617
657.362	219.191
657.490	225.383
657.618	224.319
657.746	223.362
657.874	209.234
658.002	227.936
658.130	229.851
658.258	234.064
658.387	232.298
658.515	213.553
658.643	218.979
658.771	229.149
658.899	273.447
659.027	236.766
659.155	260.596
659.283	224.532
659.412	233.362
659.540	228.170
659.668	239.064
659.796	215.830
659.924	247.489
660.052	249.660
660.180	230.809
660.308	231.957
660.437	227.809
660.565	237.085
660.693	215.213
660.821	239.128
660.949	227.043
661.077	213.957
661.205	223.383
661.333	224.340
661.462	231.064
661.590	247.979
661.718	233.511
661.846	216.298
661.974	246.319
662.102	213.723
662.230	229.532
662.358	218.830
662.487	237.021
662.615	228.043
662.743	228.085
662.871	227.426
662.999	227.617
663.127	211.617
663.255	243.511
663.383	239.128
663.512	239.000
663.640	241.574
663.768	228.915
663.896	288.255
664.024	226.872
664.152	228.681
664.280	234.191
664.408	236.851
664.537	234.957
664.665	277.170
664.793	224.447
664.921	209.362
665.049	224.043
665.177	233.404
665.305	221.043
665.433	222.723
665.562	240.532
665.690	226.319
665.818	234.915
665.946	243.553
666.074	224.596
666.202	241.574
666.330	215.234
666.458	227.255
666.587	237.085
666.715	247.830
666.843	248.894
666.971	222.319
667.099	225.979
667.227	235.617
667.355	222.894
667.483	215.638
667.612	245.319
667.740	218.489
667.868	238.191
667.996	254.447
668.124	226.191
668.252	222.319
668.380	227.894
668.508	234.617
668.637	218.468
668.765	218.830
668.893	228.128
669.021	201.957
669.149	202.660
669.277	236.255
669.405	216.809
669.533	253.638
669.662	244.915
669.790	248.277
669.918	223.128
670.046	223.149
670.174	213.468
670.302	220.830
670.430	219.511
670.558	223.787
670.687	216.149
670.815	234.447
670.943	231.979
671.071	225.766
671.199	230.681
671.327	253.043
671.455	234.170
671.583	215.128
671.712	242.936
671.840	248.149
671.968	218.085
672.096	213.234
672.224	223.936
672.352	228.723
672.480	211.936
672.608	226.021
672.737	230.128
672.865	214.511
672.993	219.489
673.121	218.574
673.249	216.000
673.377	226.255
673.505	206.596
673.633	208.894
673.762	226.213
673.890	207.340
674.018	266.340
674.146	224.553
674.274	244.617
674.402	222.511
674.530	260.979
674.658	225.383
674.787	230.021
674.915	220.149
675.043	277.213
675.171	215.426
675.299	232.000
675.427	238.809
675.555	219.340
675.683	238.638
675.812	223.532
675.940	259.170
676.068	233.787
676.196	228.809
676.324	232.191
676.452	234.447
676.580	233.574
676.708	230.021
676.837	220.574
676.965	221.702
677.093	226.915
677.221	244.447
677.349	223.915
677.477	223.021
677.605	249.936
677.733	233.787
677.862	216.468
677.990	230.021
678.118	219.277
678.246	217.596
678.374	234.128
678.502	207.894
678.630	242.340
678.758	245.532
678.887	218.596
679.015	240.851
679.143	224.213
679.271	229.106
679.399	258.872
679.527	209.809
679.655	211.553
679.783	214.532
679.912	296.447
680.040	234.149
680.168	227.426
680.296	225.468
680.424	218.766
680.552	221.553
680.680	220.574
680.808	204.043
680.937	216.872
681.065	224.362
681.193	209.723
681.321	258.128
681.449	224.830
681.577	266.489
681.705	226.596
681.833	201.894
681.962	222.872
682.090	232.213
682.218	221.830
682.346	220.702
682.474	220.362
682.602	228.936
682.730	241.511
682.858	218.511
682.987	238.426
683.115	234.383
683.243	222.319
683.371	232.298
683.499	255.000
683.627	251.128
683.755	219.021
683.883	247.872
684.012	221.723
684.140	214.553
684.268	213.574
684.396	231.468
684.524	252.085
684.652	240.255
684.780	211.660
684.908	229.362
685.037	217.021
685.165	233.787
685.293	216.787
685.421	219.681
685.549	207.340
685.677	230.404
685.805	224.660
685.933	225.638
686.062	210.574
686.190	229.149
686.318	230.064
686.446	234.319
686.574	238.766
686.702	241.766
686.830	235.468
686.958	202.064
687.087	227.085
687.215	219.468
687.343	227.787
687.471	218.638
687.599	216.043
687.727	234.979
687.855	221.915
687.983	253.298
688.112	244.021
688.240	243.830
688.368	239.532
688.496	229.128
688.624	220.255
688.752	212.936
688.880	241.596
689.008	209.383
689.137	233.596
689.265	201.915
689.393	210.787
689.521	218.809
689.649	218.277
689.777	238.489
689.905	208.362
690.033	219.447
690.162	216.766
690.290	224.128
690.418	215.234
690.546	322.936
690.674	223.511
690.802	209.191
690.930	235.489
691.058	208.043
691.187	209.532
691.315	221.021
691.443	227.638
691.571	230.468
691.699	202.213
691.827	217.043
691.955	234.128
692.083	235.979
692.212	210.404
692.340	241.957
692.468	237.553
692.596	219.277
692.724	221.128
692.852	222.000
692.980	251.043
693.108	228.553
693.237	220.447
693.365	232.979
693.493	213.809
693.621	204.532
693.749	209.617
693.877	205.511
694.005	223.106
694.133	209.957
694.262	214.660
694.390	206.213
694.518	216.936
694.646	232.298
694.774	214.894
694.902	213.064
695.030	214.702
695.158	210.936
695.287	224.255
695.415	233.809
695.543	209.340
695.671	252.426
695.799	255.809
695.927	234.638
696.055	210.596
696.183	222.766
696.312	236.383
696.440	212.043
696.568	225.553
696.696	222.064
696.824	227.447
696.952	221.851
697.080	246.915
697.208	221.468
697.337	213.957
697.465	223.617
697.593	213.000
697.721	229.064
697.849	223.085
697.977	219.447
698.105	239.234
698.233	229.340
698.362	228.723
698.490	232.723
698.618	248.957
698.746	215.787
698.874	237.085
699.002	276.574
699.130	226.426
699.258	218.149
699.387	209.787
699.515	221.255
699.643	222.936
699.771	237.106
699.899	236.085
700.027	226.021
700.155	208.000
700.283	246.745
700.412	240.553
700.540	202.277
700.668	206.000
700.796	236.660
700.924	224.553
701.052	207.894
701.180	221.149
701.308	215.851
701.437	223.574
701.565	217.021
701.693	244.809
701.821	251.085
701.949	261.787
702.077	247.170
702.205	219.404
702.333	240.340
702.462	220.936
702.590	207.000
702.718	225.511
702.846	226.298
702.974	242.511
703.102	241.340
703.230	226.021
703.358	217.383
703.487	218.574
703.615	228.128
703.743	223.723
703.871	227.426
703.999	214.553
704.127	265.915
704.255	223.638
704.383	212.340
704.512	216.702
704.640	223.745
704.768	210.936
704.896	227.660
705.024	214.872
705.152	239.894
705.280	238.957
705.408	227.128
705.537	221.277
705.665	228.149
705.793	225.085
705.921	204.277
706.049	219.702
706.177	208.809
706.305	221.255
706.433	214.787
706.562	212.383
706.690	208.362
706.818	213.745
706.946	221.191
707.074	212.149
707.202	210.787
707.330	223.766
707.458	240.043
707.587	217.021
707.715	227.830
707.843	216.149
707.971	228.191
708.099	226.319
708.227	227.702
708.355	213.149
708.483	219.638
708.612	207.936
708.740	215.809
708.868	227.660
708.996	242.702
709.124	281.532
709.252	217.957
709.380	210.915
709.508	207.702
709.637	209.979
709.765	223.745
709.893	248.277
710.021	256.064
710.149	212.809
710.277	252.638
710.405	216.000
710.533	226.468
710.662	212.979
710.790	232.021
710.918	222.298
711.046	228.957
711.174	212.830
711.302	211.128
711.430	217.745
711.558	207.404
711.687	209.617
711.815	200.043
711.943	221.000
712.071	215.277
712.199	231.149
712.327	234.553
712.455	211.809
712.583	229.766
712.712	220.894
712.840	212.660
712.968	221.383
713.096	221.617
713.224	205.191
713.352	227.936
713.480	197.319
713.608	227.809
713.737	191.936
713.865	212.660
713.993	224.660
714.121	213.787
714.249	247.553
714.377	219.043
714.505	237.468
714.633	225.723
714.762	221.830
714.890	221.000
715.018	256.234
715.146	250.809
715.274	213.809
715.402	214.404
715.530	209.809
715.658	228.617
715.787	215.021
715.915	209.638
716.043	205.894
716.171	221.766
716.299	216.383
716.427	226.404
716.555	262.340
716.683	214.574
716.812	214.000
716.940	237.553
717.068	215.872
717.196	213.787
717.324	254.149
717.452	224.255
717.580	214.851
717.708	234.660
717.837	247.894
717.965	221.298
718.093	211.830
718.221	209.574
718.349	232.596
718.477	209.085
718.605	223.064
718.733	225.936
718.862	234.149
718.990	211.638
719.118	245.851
719.246	219.830
719.374	238.340
719.502	243.489
719.630	302.191
719.758	213.000
719.887	203.787
720.015	234.170
720.143	215.489
720.271	206.638
720.399	261.936
720.527	252.298
720.655	211.809
720.783	220.489
720.912	212.426
721.040	253.809
721.168	209.404
721.296	249.064
721.424	215.085
721.552	215.787
721.680	212.638
721.808	234.319
721.937	232.234
722.065	229.000
722.193	204.702
722.321	229.128
722.449	238.872
722.577	236.936
722.705	218.894
722.833	223.106
722.962	249.532
723.090	207.404
723.218	230.787
723.346	234.106
723.474	226.021
723.602	277.766
723.730	250.915
723.858	264.872
723.987	243.319
724.115	210.979
724.243	230.979
724.371	218.511
724.499	259.383
724.627	220.085
724.755	242.809
724.883	242.915
725.012	229.043
725.140	227.574
725.268	221.723
725.396	218.298
725.524	215.085
725.652	242.957
725.780	229.830
725.908	223.362
726.037	217.064
726.165	217.681
726.293	198.553
726.421	228.191
726.549	227.894
726.677	217.383
726.805	223.000
726.933	230.213
727.062	213.255
727.190	238.404
727.318	219.872
727.446	224.702
727.574	216.660
727.702	243.043
727.830	219.511
727.958	266.596
728.087	251.255
728.215	248.426
728.343	223.489
728.471	235.532
728.599	233.553
728.727	240.234
728.855	232.574
728.983	252.574
729.112	224.128
729.240	226.383
729.368	236.702
729.496	244.596
729.624	241.404
729.752	252.085
729.880	247.106
730.008	237.979
730.137	249.617
730.265	259.660
730.393	238.319
730.521	235.277
730.649	253.936
730.777	264.106
730.905	233.723
731.033	256.574
731.162	304.660
731.290	367.809
731.418	294.574
731.546	355.298
731.674	238.277
731.802	248.383
731.930	229.596
732.058	226.574
732.187	252.085
732.315	216.106
732.443	241.170
732.571	238.064
732.699	235.511
732.827	271.404
732.955	222.872
733.083	229.851
733.212	231.723
733.340	230.681
733.468	232.830
733.596	227.277
733.724	207.404
733.852	234.702
733.980	246.723
734.108	241.681
734.237	266.702
734.365	246.255
734.493	265.979
734.621	236.340
734.749	251.362
734.877	238.021
735.005	241.511
735.133	223.149
735.262	236.170
735.390	235.106
735.518	242.383
735.646	236.255
735.774	233.447
735.902	255.766
736.030	223.872
736.158	302.213
736.287	222.170
736.415	253.681
736.543	217.255
736.671	215.064
736.799	244.468
736.927	304.511
737.055	236.936
737.183	235.745
737.312	241.979
737.440	280.723
737.568	298.043
737.696	232.383
737.824	282.213
737.952	220.298
738.080	219.766
738.208	284.511
738.337	250.277
738.465	315.255
738.593	232.404
738.721	222.404
738.849	235.915
738.977	252.936
739.105	239.213
739.233	261.085
739.362	241.149
739.490	217.809
739.618	224.489
739.746	246.745
739.874	241.872
740.002	212.787
740.130	240.298
740.258	244.170
740.387	222.660
740.515	224.149
740.643	225.043
740.771	272.787
740.899	233.128
741.027	237.106
741.155	267.532
741.283	220.809
741.412	230.617
741.540	233.106
741.668	217.787
741.796	226.106
741.924	284.511
742.052	235.936
742.180	241.298
742.308	232.851
742.437	234.255
742.565	281.064
742.693	255.085
742.821	234.000
742.949	284.596
743.077	252.213
743.205	241.043
743.333	253.106
743.462	259.489
743.590	270.426
743.718	240.745
743.846	257.809
743.974	245.723
744.102	250.277
744.230	262.809
744.358	238.489
