referenz led_at_750.00nm_cut_at_984.50Y_01.dat
24.04.2023
12:24:24
cut middle at Y: 984.50
top cursor: 1008 down cursor: 961 mean of: 47 lines , 2560 datapoints
wavelength(nm)	intensity[arb. units]
585.996	35953.106
586.124	35005.766
586.252	34599.149
586.380	34597.468
586.508	34640.085
586.637	34612.149
586.765	34683.489
586.893	34732.574
587.021	34745.064
587.149	34884.298
587.277	34832.277
587.405	34803.574
587.533	34650.043
587.662	34847.638
587.790	34823.064
587.918	34765.957
588.046	34758.298
588.174	34645.851
588.302	34712.170
588.430	34470.787
588.558	34466.000
588.687	34562.638
588.815	34526.979
588.943	34429.213
589.071	34347.979
589.199	34292.681
589.327	34203.000
589.455	34056.851
589.583	34141.447
589.712	34093.128
589.840	34077.787
589.968	33972.255
590.096	33961.532
590.224	34014.787
590.352	33948.511
590.480	33774.681
590.608	33975.723
590.737	33920.213
590.865	33821.404
590.993	33741.468
591.121	33865.149
591.249	33816.064
591.377	33769.787
591.505	33718.170
591.633	33779.532
591.762	33821.234
591.890	33973.574
592.018	33755.830
592.146	33750.723
592.274	33701.809
592.402	33791.872
592.530	33741.277
592.658	33993.894
592.787	33767.128
592.915	33958.149
593.043	33884.319
593.171	33895.426
593.299	33913.362
593.427	33992.702
593.555	34149.851
593.683	34059.957
593.812	34201.638
593.940	34188.617
594.068	34304.106
594.196	34406.681
594.324	34478.426
594.452	34612.085
594.580	34632.957
594.708	34670.404
594.837	34810.128
594.965	34915.830
595.093	34919.043
595.221	34949.213
595.349	35093.702
595.477	35113.298
595.605	35105.277
595.733	35116.851
595.862	35340.553
595.990	35218.511
596.118	35355.234
596.246	35524.191
596.374	35529.872
596.502	35413.426
596.630	35417.383
596.758	35534.809
596.887	35494.766
597.015	35532.979
597.143	35543.936
597.271	35538.021
597.399	35455.553
597.527	35449.043
597.655	35551.574
597.783	35518.723
597.912	35508.043
598.040	35412.128
598.168	35392.277
598.296	35356.894
598.424	35271.213
598.552	35331.277
598.680	35218.340
598.808	35331.553
598.937	35209.213
599.065	35095.128
599.193	35079.511
599.321	35043.021
599.449	34967.553
599.577	34859.128
599.705	34999.426
599.833	34839.043
599.962	34839.574
600.090	34886.000
600.218	34832.851
600.346	34873.255
600.474	34877.064
600.602	34829.298
600.730	34854.489
600.858	34855.404
600.987	34918.553
601.115	34847.617
601.243	34930.043
601.371	34840.468
601.499	34872.872
601.627	35000.511
601.755	35008.915
601.883	35043.915
602.012	35146.617
602.140	35185.213
602.268	35340.021
602.396	35363.085
602.524	35427.404
602.652	35559.489
602.780	35657.894
602.908	35780.660
603.037	35894.638
603.165	35963.085
603.293	36028.787
603.421	36184.213
603.549	36269.766
603.677	36439.617
603.805	36517.723
603.933	36613.191
604.062	36843.489
604.190	36823.362
604.318	36982.383
604.446	37044.213
604.574	37139.234
604.702	37184.745
604.830	37272.617
604.958	37347.872
605.087	37578.553
605.215	37607.851
605.343	37660.957
605.471	37828.532
605.599	37787.021
605.727	37761.021
605.855	37932.404
605.983	37921.766
606.112	38056.766
606.240	38204.000
606.368	38159.298
606.496	38307.809
606.624	38171.532
606.752	38340.957
606.880	38451.106
607.008	38636.851
607.137	38432.936
607.265	38262.638
607.393	38292.766
607.521	38430.000
607.649	38335.277
607.777	38203.085
607.905	38154.830
608.033	38164.021
608.162	38116.191
608.290	38097.426
608.418	38041.255
608.546	38059.979
608.674	37900.255
608.802	37782.085
608.930	37809.149
609.058	37714.617
609.187	37872.043
609.315	37756.596
609.443	37580.128
609.571	37577.553
609.699	37446.340
609.827	37536.106
609.955	37458.596
610.083	37330.936
610.212	37355.128
610.340	37249.149
610.468	37349.617
610.596	37349.213
610.724	37269.128
610.852	37236.319
610.980	37243.809
611.108	37309.702
611.237	37161.383
611.365	37273.298
611.493	37214.915
611.621	37257.106
611.749	37423.277
611.877	37540.255
612.005	37544.021
612.133	37512.638
612.262	37603.553
612.390	37554.532
612.518	37594.128
612.646	37789.809
612.774	37704.809
612.902	37780.362
613.030	37896.553
613.158	37937.936
613.287	38031.617
613.415	37985.574
613.543	38081.085
613.671	38227.234
613.799	38447.043
613.927	38322.617
614.055	38448.511
614.183	38585.234
614.312	38540.298
614.440	38641.255
614.568	38586.553
614.696	38881.979
614.824	39008.404
614.952	38991.128
615.080	39131.702
615.208	39131.660
615.337	39151.085
615.465	39226.894
615.593	39207.234
615.721	39386.064
615.849	39457.660
615.977	39518.936
616.105	39523.574
616.233	39571.511
616.362	39692.638
616.490	39742.362
616.618	39799.957
616.746	39789.574
616.874	39772.426
617.002	39800.957
617.130	39869.851
617.258	40025.532
617.387	39969.383
617.515	39931.638
617.643	39994.745
617.771	39945.936
617.899	39996.851
618.027	39953.404
618.155	40016.085
618.283	40006.532
618.412	40091.766
618.540	40164.128
618.668	40063.681
618.796	40192.957
618.924	40222.362
619.052	40127.191
619.180	40143.511
619.308	40162.128
619.437	40150.043
619.565	40220.638
619.693	40128.128
619.821	40145.021
619.949	40193.851
620.077	40279.723
620.205	40215.277
620.333	40237.511
620.462	40371.340
620.590	40249.426
620.718	40289.574
620.846	40238.574
620.974	40170.638
621.102	40264.447
621.230	40254.149
621.358	40363.553
621.487	40177.383
621.615	40174.957
621.743	40345.979
621.871	40061.638
621.999	40197.511
622.127	40161.553
622.255	40268.617
622.383	40000.872
622.512	40043.149
622.640	40135.489
622.768	39942.340
622.896	39860.936
623.024	39865.723
623.152	39859.660
623.280	39873.681
623.408	39754.085
623.537	39780.064
623.665	39756.234
623.793	39733.170
623.921	39759.723
624.049	39663.766
624.177	39708.447
624.305	39728.532
624.433	39783.106
624.562	39752.702
624.690	39547.596
624.818	39636.298
624.946	39641.404
625.074	39536.170
625.202	39483.830
625.330	39432.191
625.458	39456.745
625.587	39431.617
625.715	39439.191
625.843	39437.745
625.971	39428.277
626.099	39310.979
626.227	39399.000
626.355	39267.638
626.483	39477.532
626.612	39385.362
626.740	39408.234
626.868	39442.979
626.996	39420.660
627.124	39403.362
627.252	39403.809
627.380	39425.979
627.508	39457.489
627.637	39329.085
627.765	39407.106
627.893	39466.851
628.021	39420.064
628.149	39641.298
628.277	39704.106
628.405	39688.085
628.533	39482.596
628.662	39485.681
628.790	39402.617
628.918	39558.085
629.046	39405.553
629.174	39691.021
629.302	39852.936
629.430	39801.617
629.558	39621.574
629.687	39615.106
629.815	39663.723
629.943	39770.809
630.071	39636.617
630.199	39784.426
630.327	39728.574
630.455	39789.021
630.583	39820.234
630.712	39696.277
630.840	39883.064
630.968	39867.660
631.096	39822.915
631.224	39732.234
631.352	39821.787
631.480	39781.979
631.608	39803.957
631.737	39948.128
631.865	39867.191
631.993	39822.872
632.121	39830.277
632.249	39881.830
632.377	39861.043
632.505	39822.851
632.633	39695.043
632.762	39814.723
632.890	39893.277
633.018	39721.149
633.146	39878.340
633.274	39580.447
633.402	39640.149
633.530	39626.766
633.658	39643.362
633.787	39463.702
633.915	39484.234
634.043	39405.766
634.171	39340.213
634.299	39260.638
634.427	39337.170
634.555	39225.043
634.683	39183.574
634.812	39116.064
634.940	39018.660
635.068	38945.681
635.196	38964.511
635.324	38824.766
635.452	38795.574
635.580	38745.766
635.708	38564.574
635.837	38577.255
635.965	38412.362
636.093	38310.468
636.221	38181.191
636.349	38302.532
636.477	38191.277
636.605	38175.872
636.733	37921.021
636.862	37931.319
636.990	37809.191
637.118	37838.021
637.246	37675.596
637.374	37603.447
637.502	37556.000
637.630	37392.255
637.758	37436.426
637.887	37250.809
638.015	37253.170
638.143	37206.532
638.271	37094.957
638.399	37102.085
638.527	37003.191
638.655	36972.681
638.783	37000.213
638.912	36757.936
639.040	36785.447
639.168	36751.894
639.296	36709.383
639.424	36821.574
639.552	36572.170
639.680	36742.021
639.808	36574.383
639.937	36539.851
640.065	36495.851
640.193	36553.489
640.321	36440.851
640.449	36461.426
640.577	36469.638
640.705	36445.872
640.833	36412.489
640.962	36298.362
641.090	36344.979
641.218	36354.766
641.346	36423.000
641.474	36318.255
641.602	36263.170
641.730	36301.021
641.858	36399.979
641.987	36426.574
642.115	36386.277
642.243	36468.489
642.371	36383.170
642.499	36450.489
642.627	36476.043
642.755	36353.894
642.883	36409.915
643.012	36447.766
643.140	36389.340
643.268	36358.383
643.396	36347.957
643.524	36465.787
643.652	36427.298
643.780	36295.489
643.908	36424.979
644.037	36423.489
644.165	36338.340
644.293	36200.787
644.421	36289.085
644.549	36256.340
644.677	36238.426
644.805	36237.851
644.933	36113.000
645.062	36109.660
645.190	36181.574
645.318	36201.596
645.446	36060.149
645.574	36052.830
645.702	36021.553
645.830	36127.681
645.958	35879.468
646.087	36071.979
646.215	35787.362
646.343	36032.766
646.471	35739.574
646.599	35727.681
646.727	35501.957
646.855	35528.277
646.983	35510.383
647.112	35482.745
647.240	35508.106
647.368	35421.213
647.496	35448.468
647.624	35268.936
647.752	35228.426
647.880	35088.404
648.008	35047.617
648.137	34918.362
648.265	34896.915
648.393	34861.000
648.521	34874.489
648.649	34780.277
648.777	34696.234
648.905	34619.468
649.033	34510.255
649.162	34487.957
649.290	34483.000
649.418	34335.426
649.546	34275.149
649.674	34275.043
649.802	34144.064
649.930	34196.596
650.058	33988.383
650.187	33879.106
650.315	33776.255
650.443	33646.043
650.571	33618.979
650.699	33591.021
650.827	33528.532
650.955	33436.277
651.083	33345.830
651.212	33391.191
651.340	33223.191
651.468	33064.532
651.596	32935.191
651.724	32942.596
651.852	32911.468
651.980	32806.681
652.108	32749.957
652.237	32652.085
652.365	32636.170
652.493	32584.617
652.621	32509.064
652.749	32535.957
652.877	32313.489
653.005	32258.191
653.133	32257.745
653.262	32145.489
653.390	32064.745
653.518	32047.404
653.646	31995.979
653.774	32047.404
653.902	31810.404
654.030	31721.213
654.158	31723.787
654.287	31661.383
654.415	31567.064
654.543	31514.553
654.671	31353.830
654.799	31384.894
654.927	31142.085
655.055	31225.681
655.183	31031.149
655.312	31064.383
655.440	30977.660
655.568	30868.574
655.696	30868.340
655.824	30921.277
655.952	30702.213
656.080	30655.979
656.208	30665.277
656.337	30466.404
656.465	30478.787
656.593	30334.915
656.721	30257.404
656.849	30173.830
656.977	30087.936
657.105	30014.511
657.233	30006.064
657.362	29876.915
657.490	29710.128
657.618	29688.553
657.746	29707.872
657.874	29593.213
658.002	29550.404
658.130	29405.191
658.258	29307.447
658.387	29274.149
658.515	29156.745
658.643	29045.574
658.771	29024.043
658.899	28988.872
659.027	28938.064
659.155	28837.298
659.283	28834.128
659.412	28623.915
659.540	28604.468
659.668	28472.915
659.796	28401.766
659.924	28345.596
660.052	28338.872
660.180	28214.085
660.308	28184.745
660.437	28076.064
660.565	28004.255
660.693	27974.766
660.821	27867.447
660.949	27747.234
661.077	27799.787
661.205	27697.787
661.333	27525.468
661.462	27628.298
661.590	27551.702
661.718	27649.681
661.846	27420.511
661.974	27442.660
662.102	27306.085
662.230	27203.894
662.358	27097.766
662.487	27099.255
662.615	27031.681
662.743	27055.043
662.871	27020.319
662.999	26946.255
663.127	26813.915
663.255	26903.064
663.383	26826.021
663.512	26757.745
663.640	26734.574
663.768	26679.468
663.896	26642.298
664.024	26653.000
664.152	26541.319
664.280	26564.319
664.408	26501.532
664.537	26554.170
664.665	26433.681
664.793	26376.426
664.921	26318.596
665.049	26272.447
665.177	26374.787
665.305	26265.234
665.433	26194.681
665.562	26227.702
665.690	26187.809
665.818	26300.872
665.946	26172.021
666.074	26083.255
666.202	26171.468
666.330	26127.277
666.458	26046.723
666.587	26057.660
666.715	25985.638
666.843	25968.830
666.971	25956.213
667.099	25876.660
667.227	25790.255
667.355	25869.128
667.483	25704.553
667.612	25718.809
667.740	25680.851
667.868	25677.234
667.996	25660.745
668.124	25603.255
668.252	25563.617
668.380	25562.277
668.508	25560.936
668.637	25444.000
668.765	25335.043
668.893	25335.043
669.021	25310.894
669.149	25330.468
669.277	25342.745
669.405	25079.383
669.533	25053.085
669.662	25321.936
669.790	24983.872
669.918	24983.234
670.046	24876.191
670.174	24916.681
670.302	24839.532
670.430	24664.532
670.558	24609.894
670.687	24532.277
670.815	24667.426
670.943	24467.638
671.071	24407.277
671.199	24393.787
671.327	24210.574
671.455	24215.362
671.583	24049.489
671.712	24193.766
671.840	24003.617
671.968	23759.596
672.096	23830.638
672.224	23759.723
672.352	23813.830
672.480	23549.213
672.608	23512.638
672.737	23356.447
672.865	23433.255
672.993	23224.404
673.121	23041.894
673.249	23058.277
673.377	22967.362
673.505	22876.766
673.633	22775.936
673.762	22747.915
673.890	22661.766
674.018	22837.894
674.146	22517.787
674.274	22399.957
674.402	22434.468
674.530	22192.596
674.658	22112.872
674.787	22043.511
674.915	21939.277
675.043	21932.681
675.171	21782.894
675.299	21679.596
675.427	21630.702
675.555	21469.170
675.683	21471.936
675.812	21372.383
675.940	21300.064
676.068	21184.191
676.196	21123.702
676.324	21030.553
676.452	20923.660
676.580	20809.660
676.708	20821.787
676.837	20719.128
676.965	20597.532
677.093	20509.404
677.221	20421.830
677.349	20436.979
677.477	20359.213
677.605	20250.489
677.733	20204.957
677.862	20095.213
677.990	19996.511
678.118	19929.106
678.246	19818.298
678.374	19869.362
678.502	19655.936
678.630	19627.894
678.758	19557.255
678.887	19514.128
679.015	19460.894
679.143	19395.170
679.271	19303.574
679.399	19305.936
679.527	19227.340
679.655	19176.128
679.783	19126.191
679.912	19046.340
680.040	18971.489
680.168	18902.277
680.296	18801.362
680.424	18747.979
680.552	18708.638
680.680	18732.915
680.808	18634.191
680.937	18550.809
681.065	18464.660
681.193	18472.149
681.321	18416.915
681.449	18346.426
681.577	18386.617
681.705	18294.234
681.833	18222.149
681.962	18180.106
682.090	18269.404
682.218	18114.723
682.346	18090.596
682.474	18078.298
682.602	17968.489
682.730	17989.213
682.858	17891.383
682.987	17953.660
683.115	17831.340
683.243	17864.723
683.371	17762.596
683.499	17831.915
683.627	17771.000
683.755	17740.404
683.883	17812.468
684.012	17625.638
684.140	17568.979
684.268	17518.681
684.396	17512.596
684.524	17542.894
684.652	17556.957
684.780	17463.532
684.908	17452.468
685.037	17403.106
685.165	17291.979
685.293	17283.085
685.421	17305.702
685.549	17247.064
685.677	17151.128
685.805	17229.191
685.933	17144.404
686.062	17041.723
686.190	17042.255
686.318	17034.830
686.446	16940.298
686.574	16892.957
686.702	16902.596
686.830	16800.043
686.958	16741.894
687.087	16731.340
687.215	16734.426
687.343	16598.872
687.471	16579.043
687.599	16481.064
687.727	16658.553
687.855	16523.489
687.983	16433.021
688.112	16421.170
688.240	16287.702
688.368	16288.596
688.496	16314.872
688.624	16252.936
688.752	16126.426
688.880	16103.532
689.008	16050.298
689.137	16037.681
689.265	15936.426
689.393	15903.255
689.521	15836.745
689.649	15854.894
689.777	15770.787
689.905	15748.660
690.033	15682.340
690.162	15646.404
690.290	15573.660
690.418	15489.021
690.546	15565.149
690.674	15501.766
690.802	15334.723
690.930	15309.128
691.058	15326.426
691.187	15201.426
691.315	15168.915
691.443	15233.085
691.571	15064.234
691.699	15114.957
691.827	15059.553
691.955	14961.809
692.083	14879.532
692.212	14951.936
692.340	14757.574
692.468	14768.787
692.596	14706.936
692.724	14821.979
692.852	14613.106
692.980	14636.255
693.108	14533.468
693.237	14488.617
693.365	14407.340
693.493	14316.043
693.621	14307.489
693.749	14217.362
693.877	14176.468
694.005	14216.170
694.133	14022.766
694.262	14022.766
694.390	13948.745
694.518	13982.319
694.646	13891.830
694.774	13917.511
694.902	13903.426
695.030	13804.851
695.158	13643.638
695.287	13687.468
695.415	13681.000
695.543	13523.957
695.671	13669.128
695.799	13503.085
695.927	13466.404
696.055	13370.915
696.183	13386.596
696.312	13335.681
696.440	13441.128
696.568	13333.872
696.696	13242.489
696.824	13104.255
696.952	13117.319
697.080	13110.213
697.208	12975.000
697.337	13018.979
697.465	12886.319
697.593	12785.085
697.721	12829.404
697.849	12793.511
697.977	12699.277
698.105	12725.447
698.233	12620.936
698.362	12638.340
698.490	12544.596
698.618	12509.745
698.746	12569.000
698.874	12419.106
699.002	12568.702
699.130	12299.489
699.258	12294.936
699.387	12166.681
699.515	12215.574
699.643	12114.574
699.771	12173.255
699.899	12071.298
700.027	12040.426
700.155	11915.298
700.283	11920.979
700.412	11871.532
700.540	11804.936
700.668	11737.170
700.796	11685.128
700.924	11608.617
701.052	11594.617
701.180	11704.979
701.308	11565.383
701.437	11440.447
701.565	11415.255
701.693	11315.340
701.821	11338.979
701.949	11330.617
702.077	11281.574
702.205	11151.830
702.333	11088.106
702.462	11062.745
702.590	11026.128
702.718	10965.149
702.846	10887.489
702.974	10876.745
703.102	10822.745
703.230	10836.191
703.358	10714.043
703.487	10624.340
703.615	10785.085
703.743	10539.064
703.871	10500.404
703.999	10491.447
704.127	10505.426
704.255	10293.383
704.383	10481.596
704.512	10251.553
704.640	10202.191
704.768	10117.617
704.896	10149.106
705.024	10029.702
705.152	10083.213
705.280	9924.809
705.408	9918.809
705.537	9881.362
705.665	9797.362
705.793	9705.234
705.921	9661.745
706.049	9627.809
706.177	9579.851
706.305	9560.872
706.433	9574.447
706.562	9437.383
706.690	9371.149
706.818	9289.830
706.946	9521.085
707.074	9260.426
707.202	9165.319
707.330	9236.234
707.458	9151.383
707.587	9073.787
707.715	9012.043
707.843	9084.404
707.971	8995.255
708.099	9002.745
708.227	8859.362
708.355	8832.149
708.483	8754.574
708.612	8740.426
708.740	8705.702
708.868	8775.383
708.996	8626.149
709.124	8647.745
709.252	8585.213
709.380	8521.319
709.508	8545.511
709.637	8446.532
709.765	8429.894
709.893	8403.957
710.021	8396.894
710.149	8312.489
710.277	8311.277
710.405	8230.915
710.533	8255.872
710.662	8200.340
710.790	8148.255
710.918	8138.915
711.046	8087.553
711.174	8064.553
711.302	8041.681
711.430	8071.021
711.558	7951.915
711.687	7919.043
711.815	7923.574
711.943	7925.723
712.071	7851.851
712.199	7856.702
712.327	7834.745
712.455	7768.234
712.583	7766.213
712.712	7712.404
712.840	7673.489
712.968	7674.638
713.096	7677.702
713.224	7526.809
713.352	7565.000
713.480	7525.106
713.608	7519.830
713.737	7498.979
713.865	7483.277
713.993	7514.723
714.121	7405.064
714.249	7422.532
714.377	7422.851
714.505	7390.489
714.633	7497.021
714.762	7341.511
714.890	7243.085
715.018	7280.532
715.146	7265.617
715.274	7254.872
715.402	7346.511
715.530	7240.574
715.658	7132.468
715.787	7115.447
715.915	7257.191
716.043	7047.362
716.171	7071.468
716.299	7132.255
716.427	7025.787
716.555	6996.489
716.683	6931.809
716.812	6935.702
716.940	6963.787
717.068	6810.766
717.196	7018.532
717.324	6934.894
717.452	6806.766
717.580	6734.021
717.708	6742.553
717.837	6756.638
717.965	6672.340
718.093	6663.894
718.221	6636.809
718.349	6611.553
718.477	6619.234
718.605	6623.468
718.733	6544.043
718.862	6526.106
718.990	6463.426
719.118	6467.362
719.246	6385.128
719.374	6452.532
719.502	6393.021
719.630	6534.787
719.758	6295.149
719.887	6257.638
720.015	6443.213
720.143	6197.255
720.271	6197.213
720.399	6222.553
720.527	6226.468
720.655	6204.106
720.783	6196.702
720.912	6041.021
721.040	6058.298
721.168	6014.106
721.296	6028.426
721.424	5946.851
721.552	5834.936
721.680	5879.872
721.808	5878.426
721.937	5852.574
722.065	5923.362
722.193	5901.596
722.321	5771.085
722.449	5698.064
722.577	5700.277
722.705	5660.809
722.833	5634.511
722.962	5636.979
723.090	5532.617
723.218	5504.787
723.346	5486.979
723.474	5485.915
723.602	5579.574
723.730	5489.255
723.858	5551.766
723.987	5404.340
724.115	5446.894
724.243	5338.170
724.371	5336.277
724.499	5340.255
724.627	5214.170
724.755	5170.830
724.883	5189.468
725.012	5196.404
725.140	5198.489
725.268	5131.447
725.396	5033.128
725.524	5066.830
725.652	5042.170
725.780	5011.660
725.908	5069.383
726.037	5131.660
726.165	4882.745
726.293	4874.106
726.421	4859.298
726.549	4853.787
726.677	4833.085
726.805	4789.638
726.933	4737.298
727.062	4789.702
727.190	4742.723
727.318	4626.894
727.446	4679.191
727.574	4644.511
727.702	4774.234
727.830	4580.553
727.958	4637.064
728.087	4572.553
