Referenz_PP_at_750.00nm_cut_at_1008.00Y_01.dat
15.05.2023
12:36:52
cut middle at Y: 1008.00
top cursor: 1048 down cursor: 968 mean of: 80 lines , 2560 datapoints
wavelength(nm)	intensity[arb. units]
585.996	863.138
586.124	861.800
586.252	854.788
586.380	845.138
586.508	844.650
586.637	863.675
586.765	862.013
586.893	868.437
587.021	858.650
587.149	866.350
587.277	862.875
587.405	864.475
587.533	847.350
587.662	866.850
587.790	872.038
587.918	867.038
588.046	863.775
588.174	860.138
588.302	871.212
588.430	869.875
588.558	864.013
588.687	867.013
588.815	885.625
588.943	873.013
589.071	871.175
589.199	876.263
589.327	863.163
589.455	864.138
589.583	861.913
589.712	874.375
589.840	874.437
589.968	856.525
590.096	863.075
590.224	867.725
590.352	869.700
590.480	861.587
590.608	879.375
590.737	859.538
590.865	869.663
590.993	873.725
591.121	870.362
591.249	872.575
591.377	859.538
591.505	862.163
591.633	859.638
591.762	879.612
591.890	872.263
592.018	871.987
592.146	871.775
592.274	878.788
592.402	868.775
592.530	865.800
592.658	879.275
592.787	878.513
592.915	872.775
593.043	871.513
593.171	871.525
593.299	888.913
593.427	873.875
593.555	885.650
593.683	879.288
593.812	883.650
593.940	891.312
594.068	893.700
594.196	904.125
594.324	879.925
594.452	889.250
594.580	899.788
594.708	893.650
594.837	893.638
594.965	895.562
595.093	904.075
595.221	902.175
595.349	897.962
595.477	906.075
595.605	893.087
595.733	915.962
595.862	906.200
595.990	905.025
596.118	902.050
596.246	905.987
596.374	916.000
596.502	919.187
596.630	918.987
596.758	922.538
596.887	914.187
597.015	923.450
597.143	918.362
597.271	917.075
597.399	915.700
597.527	915.250
597.655	913.837
597.783	922.362
597.912	901.788
598.040	924.775
598.168	926.187
598.296	910.237
598.424	909.562
598.552	909.850
598.680	915.962
598.808	908.638
598.937	915.300
599.065	917.112
599.193	903.900
599.321	896.800
599.449	912.025
599.577	905.575
599.705	907.638
599.833	897.250
599.962	905.962
600.090	903.462
600.218	904.062
600.346	901.200
600.474	915.050
600.602	917.450
600.730	911.525
600.858	909.950
600.987	902.675
601.115	906.687
601.243	895.337
601.371	903.475
601.499	913.750
601.627	899.750
601.755	921.675
601.883	916.112
602.012	910.612
602.140	915.087
602.268	916.913
602.396	915.837
602.524	919.937
602.652	918.763
602.780	911.900
602.908	930.263
603.037	939.638
603.165	916.300
603.293	929.275
603.421	933.200
603.549	927.650
603.677	951.388
603.805	922.900
603.933	928.300
604.062	924.450
604.190	941.750
604.318	922.575
604.446	949.663
604.574	945.538
604.702	935.550
604.830	935.700
604.958	941.112
605.087	953.625
605.215	940.788
605.343	955.112
605.471	940.375
605.599	944.538
605.727	944.962
605.855	967.337
605.983	945.413
606.112	961.425
606.240	959.888
606.368	967.550
606.496	967.400
606.624	965.112
606.752	965.550
606.880	956.587
607.008	960.962
607.137	967.000
607.265	967.138
607.393	972.913
607.521	973.525
607.649	973.538
607.777	953.513
607.905	958.750
608.033	962.462
608.162	962.225
608.290	967.413
608.418	970.875
608.546	970.100
608.674	984.475
608.802	969.750
608.930	971.862
609.058	968.775
609.187	965.450
609.315	957.587
609.443	966.525
609.571	969.050
609.699	965.075
609.827	961.437
609.955	964.663
610.083	968.788
610.212	960.875
610.340	966.100
610.468	956.862
610.596	960.937
610.724	956.425
610.852	969.900
610.980	960.212
611.108	966.825
611.237	958.837
611.365	971.638
611.493	965.150
611.621	964.275
611.749	973.525
611.877	970.812
612.005	969.237
612.133	970.187
612.262	962.900
612.390	973.900
612.518	973.050
612.646	961.950
612.774	977.175
612.902	964.737
613.030	980.775
613.158	966.550
613.287	1002.275
613.415	980.125
613.543	971.038
613.671	967.013
613.799	992.700
613.927	969.413
614.055	970.575
614.183	981.200
614.312	983.100
614.440	981.850
614.568	981.538
614.696	996.375
614.824	986.275
614.952	987.712
615.080	992.300
615.208	993.875
615.337	982.562
615.465	998.538
615.593	997.837
615.721	1008.388
615.849	1006.675
615.977	1002.925
616.105	991.600
616.233	1003.600
616.362	998.450
616.490	1000.750
616.618	1006.038
616.746	995.362
616.874	1013.913
617.002	1014.400
617.130	1018.050
617.258	1017.425
617.387	1016.462
617.515	1008.600
617.643	1015.138
617.771	1011.138
617.899	1015.525
618.027	1012.050
618.155	1023.212
618.283	1009.737
618.412	1019.962
618.540	1012.462
618.668	1006.850
618.796	1011.725
618.924	1017.587
619.052	1009.100
619.180	1015.112
619.308	1018.362
619.437	1010.525
619.565	1016.075
619.693	1017.087
619.821	1009.450
619.949	1005.325
620.077	1005.500
620.205	1013.300
620.333	1012.950
620.462	1008.400
620.590	1014.513
620.718	1015.788
620.846	1014.937
620.974	1048.213
621.102	1007.650
621.230	1010.225
621.358	1030.650
621.487	1017.850
621.615	1014.687
621.743	1024.825
621.871	1015.013
621.999	1010.575
622.127	1019.475
622.255	1021.112
622.383	1002.562
622.512	1013.788
622.640	1012.538
622.768	1014.025
622.896	1008.562
623.024	1003.513
623.152	1012.712
623.280	997.487
623.408	1001.425
623.537	1015.800
623.665	1018.413
623.793	994.750
623.921	997.275
624.049	998.212
624.177	1014.550
624.305	1008.237
624.433	1008.462
624.562	1014.187
624.690	1000.350
624.818	1008.263
624.946	1007.500
625.074	1009.625
625.202	1013.750
625.330	1011.675
625.458	1012.075
625.587	1006.750
625.715	1009.425
625.843	1009.125
625.971	1020.000
626.099	1024.075
626.227	1017.487
626.355	1004.950
626.483	1008.800
626.612	994.612
626.740	997.825
626.868	1017.437
626.996	1002.375
627.124	1007.038
627.252	984.062
627.380	1009.275
627.508	997.913
627.637	999.538
627.765	1001.825
627.893	1022.775
628.021	1011.788
628.149	1027.388
628.277	1042.750
628.405	1024.400
628.533	1012.550
628.662	1007.675
628.790	1010.675
628.918	1012.237
629.046	1012.288
629.174	1002.487
629.302	1020.288
629.430	1024.112
629.558	1004.712
629.687	1023.500
629.815	1012.975
629.943	1013.975
630.071	1013.712
630.199	1017.550
630.327	1014.388
630.455	1008.337
630.583	1025.763
630.712	1025.025
630.840	1016.725
630.968	1030.900
631.096	1019.975
631.224	1022.862
631.352	1026.187
631.480	1023.362
631.608	1023.612
631.737	1032.987
631.865	1027.662
631.993	1018.638
632.121	1029.312
632.249	1026.525
632.377	1045.475
632.505	1029.062
632.633	1023.288
632.762	1026.612
632.890	1028.650
633.018	1033.888
633.146	1032.525
633.274	1027.562
633.402	1015.700
633.530	1018.425
633.658	1032.537
633.787	1016.400
633.915	1038.362
634.043	1011.687
634.171	1036.287
634.299	1035.375
634.427	1021.575
634.555	1023.800
634.683	1026.175
634.812	1018.413
634.940	1021.487
635.068	1018.362
635.196	1008.013
635.324	1022.638
635.452	1025.100
635.580	1015.987
635.708	1010.575
635.837	1002.737
635.965	1012.812
636.093	1009.150
636.221	1007.850
636.349	1004.650
636.477	1009.225
636.605	1014.200
636.733	998.425
636.862	1006.513
636.990	978.513
637.118	997.513
637.246	998.138
637.374	986.300
637.502	983.525
637.630	997.450
637.758	989.175
637.887	1001.263
638.015	983.250
638.143	992.675
638.271	989.487
638.399	981.962
638.527	971.900
638.655	986.200
638.783	991.913
638.912	969.462
639.040	963.987
639.168	978.913
639.296	979.675
639.424	980.513
639.552	980.875
639.680	998.837
639.808	981.350
639.937	969.250
640.065	973.837
640.193	980.888
640.321	952.200
640.449	973.763
640.577	973.812
640.705	950.800
640.833	968.937
640.962	964.612
641.090	964.687
641.218	974.900
641.346	962.400
641.474	955.913
641.602	948.212
641.730	965.500
641.858	973.837
641.987	959.325
642.115	964.850
642.243	973.275
642.371	976.225
642.499	958.212
642.627	958.788
642.755	958.850
642.883	961.050
643.012	968.712
643.140	963.975
643.268	953.600
643.396	982.275
643.524	961.538
643.652	958.050
643.780	960.562
643.908	968.187
644.037	960.875
644.165	954.200
644.293	958.712
644.421	952.087
644.549	957.750
644.677	961.600
644.805	961.538
644.933	948.900
645.062	963.275
645.190	944.362
645.318	938.913
645.446	967.675
645.574	964.288
645.702	943.288
645.830	965.575
645.958	961.538
646.087	947.888
646.215	952.612
646.343	954.112
646.471	950.187
646.599	964.275
646.727	947.200
646.855	954.312
646.983	961.675
647.112	956.538
647.240	954.100
647.368	940.950
647.496	945.875
647.624	943.187
647.752	947.075
647.880	952.650
648.008	950.825
648.137	936.087
648.265	945.312
648.393	932.825
648.521	948.038
648.649	934.350
648.777	925.362
648.905	939.562
649.033	923.250
649.162	925.763
649.290	939.587
649.418	918.237
649.546	928.775
649.674	925.000
649.802	915.300
649.930	923.750
650.058	915.675
650.187	927.388
650.315	911.737
650.443	919.850
650.571	914.638
650.699	919.737
650.827	915.163
650.955	908.937
651.083	911.550
651.212	909.112
651.340	905.325
651.468	911.575
651.596	897.850
651.724	907.837
651.852	898.337
651.980	896.325
652.108	896.350
652.237	876.900
652.365	890.925
652.493	892.562
652.621	889.663
652.749	888.862
652.877	885.987
653.005	881.475
653.133	896.962
653.262	883.812
653.390	887.663
653.518	887.600
653.646	881.712
653.774	881.300
653.902	881.763
654.030	875.138
654.158	869.350
654.287	884.425
654.415	875.038
654.543	872.000
654.671	870.925
654.799	868.550
654.927	875.187
655.055	855.175
655.183	857.225
655.312	849.663
655.440	863.263
655.568	858.312
655.696	859.663
655.824	855.675
655.952	852.788
656.080	845.900
656.208	863.337
656.337	845.375
656.465	851.763
656.593	851.000
656.721	849.513
656.849	848.687
656.977	838.638
657.105	841.712
657.233	839.812
657.362	843.062
657.490	832.812
657.618	838.975
657.746	837.913
657.874	816.275
658.002	838.325
658.130	827.663
658.258	826.538
658.387	845.650
658.515	826.200
658.643	830.450
658.771	820.138
658.899	829.163
659.027	825.013
659.155	830.888
659.283	811.400
659.412	815.900
659.540	809.175
659.668	824.962
659.796	810.450
659.924	834.612
660.052	818.763
660.180	815.825
660.308	818.275
660.437	804.587
660.565	815.400
660.693	806.288
660.821	807.550
660.949	807.413
661.077	796.638
661.205	804.250
661.333	791.250
661.462	811.600
661.590	819.187
661.718	800.888
661.846	797.788
661.974	807.575
662.102	794.500
662.230	801.337
662.358	792.500
662.487	793.375
662.615	781.700
662.743	796.837
662.871	794.300
662.999	788.825
663.127	782.625
663.255	798.700
663.383	795.150
663.512	784.687
663.640	795.288
663.768	776.650
663.896	795.712
664.024	778.687
664.152	781.812
664.280	786.263
664.408	771.500
664.537	788.587
664.665	783.775
664.793	768.362
664.921	771.587
665.049	772.875
665.177	794.937
665.305	772.987
665.433	764.900
665.562	764.250
665.690	772.550
665.818	776.263
665.946	765.225
666.074	764.400
666.202	763.725
666.330	763.163
666.458	761.875
666.587	761.862
666.715	761.800
666.843	767.237
666.971	757.575
667.099	754.712
667.227	763.150
667.355	752.600
667.483	753.112
667.612	756.987
667.740	761.112
667.868	754.725
667.996	759.362
668.124	743.825
668.252	756.575
668.380	742.763
668.508	749.975
668.637	741.375
668.765	751.200
668.893	748.225
669.021	740.075
669.149	735.000
669.277	740.000
669.405	740.763
669.533	751.812
669.662	736.675
669.790	731.038
669.918	733.837
670.046	734.475
670.174	732.937
670.302	730.200
670.430	720.487
670.558	727.587
670.687	725.875
670.815	727.638
670.943	728.450
671.071	719.513
671.199	728.212
671.327	727.562
671.455	719.900
671.583	720.413
671.712	713.462
671.840	721.038
671.968	711.725
672.096	711.800
672.224	710.800
672.352	706.375
672.480	709.888
672.608	705.550
672.737	703.675
672.865	701.888
672.993	708.538
673.121	704.600
673.249	697.712
673.377	700.487
673.505	703.837
673.633	694.675
673.762	695.100
673.890	695.487
674.018	692.038
674.146	692.737
674.274	692.825
674.402	688.175
674.530	688.750
674.658	683.450
674.787	676.913
674.915	676.362
675.043	686.538
675.171	676.400
675.299	672.663
675.427	673.250
675.555	673.712
675.683	674.437
675.812	666.712
675.940	685.187
676.068	684.087
676.196	668.850
676.324	668.587
676.452	663.388
676.580	657.350
676.708	659.737
676.837	665.150
676.965	654.650
677.093	663.275
677.221	652.025
677.349	637.487
677.477	648.788
677.605	643.775
677.733	656.888
677.862	639.275
677.990	647.962
678.118	645.712
678.246	632.675
678.374	633.075
678.502	636.987
678.630	637.425
678.758	633.112
678.887	628.900
679.015	630.737
679.143	621.112
679.271	626.513
679.399	639.050
679.527	622.750
679.655	621.525
679.783	620.725
679.912	628.925
680.040	622.125
680.168	617.975
680.296	619.225
680.424	614.750
680.552	620.687
680.680	615.950
680.808	604.500
680.937	607.362
681.065	617.212
681.193	606.800
681.321	619.962
681.449	603.175
681.577	614.013
681.705	598.550
681.833	592.362
681.962	597.962
682.090	604.687
682.218	593.638
682.346	592.612
682.474	596.550
682.602	598.200
682.730	602.950
682.858	596.075
682.987	592.025
683.115	590.413
683.243	590.125
683.371	592.350
683.499	587.187
683.627	596.862
683.755	585.862
683.883	584.175
684.012	577.625
684.140	574.288
684.268	586.175
684.396	579.987
684.524	574.888
684.652	580.812
684.780	582.312
684.908	575.612
685.037	580.775
685.165	575.575
685.293	577.487
685.421	576.975
685.549	571.425
685.677	577.600
685.805	562.675
685.933	563.187
686.062	561.437
686.190	567.750
686.318	555.225
686.446	565.850
686.574	563.587
686.702	562.788
686.830	565.413
686.958	555.862
687.087	561.875
687.215	554.937
687.343	555.000
687.471	552.237
687.599	547.225
687.727	549.763
687.855	554.600
687.983	550.687
688.112	546.650
688.240	546.837
688.368	546.712
688.496	545.138
688.624	549.950
688.752	538.550
688.880	541.862
689.008	535.725
689.137	541.200
689.265	535.625
689.393	533.763
689.521	531.950
689.649	537.788
689.777	534.663
689.905	531.612
690.033	539.663
690.162	529.850
690.290	530.062
690.418	521.825
690.546	545.500
690.674	531.275
690.802	521.187
690.930	522.638
691.058	521.737
691.187	515.550
691.315	519.050
691.443	516.350
691.571	518.888
691.699	508.087
691.827	512.712
691.955	521.038
692.083	511.913
692.212	503.600
692.340	527.425
692.468	518.625
692.596	509.887
692.724	506.950
692.852	511.437
692.980	512.112
693.108	498.437
693.237	501.050
693.365	501.163
693.493	495.250
693.621	498.663
693.749	500.025
693.877	500.788
694.005	495.012
694.133	501.012
694.262	499.650
694.390	497.062
694.518	484.125
694.646	493.425
694.774	484.225
694.902	487.700
695.030	498.962
695.158	476.562
695.287	482.550
695.415	482.100
695.543	485.875
695.671	479.738
695.799	482.325
695.927	480.050
696.055	469.450
696.183	475.350
696.312	481.837
696.440	471.562
696.568	469.575
696.696	473.925
696.824	472.900
696.952	464.137
697.080	471.200
697.208	475.587
697.337	467.875
697.465	463.800
697.593	458.613
697.721	460.150
697.849	456.812
697.977	450.200
698.105	458.462
698.233	458.925
698.362	455.175
698.490	448.637
698.618	458.012
698.746	453.212
698.874	456.812
699.002	459.975
699.130	449.413
699.258	446.200
699.387	442.712
699.515	440.113
699.643	446.700
699.771	448.337
699.899	443.850
700.027	440.575
700.155	440.600
700.283	440.613
700.412	444.100
700.540	442.137
700.668	431.113
700.796	441.163
700.924	432.738
701.052	433.913
701.180	434.300
701.308	431.538
701.437	426.100
701.565	436.437
701.693	429.825
701.821	440.425
701.949	444.950
702.077	419.650
702.205	428.962
702.333	425.825
702.462	423.113
702.590	419.350
702.718	418.788
702.846	413.562
702.974	425.475
703.102	423.788
703.230	426.850
703.358	411.212
703.487	414.075
703.615	420.613
703.743	404.262
703.871	416.875
703.999	401.250
704.127	413.150
704.255	401.600
704.383	407.887
704.512	402.800
704.640	402.137
704.768	399.850
704.896	397.275
705.024	398.712
705.152	403.512
705.280	393.012
705.408	409.288
705.537	397.300
705.665	393.812
705.793	390.850
705.921	389.937
706.049	396.437
706.177	392.175
706.305	389.025
706.433	386.812
706.562	383.775
706.690	385.837
706.818	386.400
706.946	382.637
707.074	377.475
707.202	382.687
707.330	386.950
707.458	389.387
707.587	377.062
707.715	379.937
707.843	372.062
707.971	376.925
708.099	374.538
708.227	369.525
708.355	370.262
708.483	369.163
708.612	372.113
708.740	375.363
708.868	365.187
708.996	364.462
709.124	379.475
709.252	371.850
709.380	364.462
709.508	355.637
709.637	361.125
709.765	365.150
709.893	364.675
710.021	365.400
710.149	352.850
710.277	364.125
710.405	356.750
710.533	353.012
710.662	355.825
710.790	354.137
710.918	353.750
711.046	358.700
711.174	354.375
711.302	352.100
711.430	353.575
711.558	349.937
711.687	343.375
711.815	344.125
711.943	358.600
712.071	351.700
712.199	344.187
712.327	348.275
712.455	343.137
712.583	343.738
712.712	361.950
712.840	342.950
712.968	340.137
713.096	345.325
713.224	338.475
713.352	332.163
713.480	329.325
713.608	332.387
713.737	333.250
713.865	337.863
713.993	333.375
714.121	327.613
714.249	336.975
714.377	330.413
714.505	332.288
714.633	326.975
714.762	320.837
714.890	336.675
715.018	336.425
715.146	327.262
715.274	325.837
715.402	321.038
715.530	323.350
715.658	325.012
715.787	324.525
715.915	320.187
716.043	323.462
716.171	329.663
716.299	334.163
716.427	320.288
716.555	322.975
716.683	323.762
716.812	320.788
716.940	318.937
717.068	315.712
717.196	316.937
717.324	318.675
717.452	309.913
717.580	307.238
717.708	313.812
717.837	319.113
717.965	317.275
718.093	310.437
718.221	307.325
718.349	304.587
718.477	307.637
718.605	302.712
718.733	307.562
718.862	304.187
718.990	303.087
719.118	308.425
719.246	303.212
719.374	298.625
719.502	310.525
719.630	314.738
719.758	300.925
719.887	297.975
720.015	303.163
720.143	296.738
720.271	304.775
720.399	302.113
720.527	305.538
720.655	292.825
720.783	299.400
720.912	305.625
721.040	309.387
721.168	298.187
721.296	296.075
721.424	294.663
721.552	287.025
721.680	284.525
721.808	295.113
721.937	292.550
722.065	286.863
722.193	290.312
722.321	285.012
722.449	284.475
722.577	287.137
722.705	287.738
722.833	283.587
722.962	289.900
723.090	278.700
723.218	282.725
723.346	281.887
723.474	288.875
723.602	289.175
723.730	284.250
723.858	279.363
723.987	285.337
724.115	279.275
724.243	277.913
724.371	277.187
724.499	286.863
724.627	277.312
724.755	278.375
724.883	280.613
725.012	271.650
725.140	276.413
725.268	279.113
725.396	275.038
725.524	263.950
725.652	273.288
725.780	272.025
725.908	274.587
726.037	267.100
726.165	271.962
726.293	266.500
726.421	264.363
726.549	273.187
726.677	268.225
726.805	267.387
726.933	266.087
727.062	257.925
727.190	264.125
727.318	265.550
727.446	260.687
727.574	263.512
727.702	265.475
727.830	257.512
727.958	267.250
728.087	260.150
728.215	260.837
728.343	257.113
728.471	262.262
728.599	256.988
728.727	257.788
728.855	259.312
728.983	256.400
729.112	252.175
729.240	257.250
729.368	257.687
729.496	258.100
729.624	256.762
729.752	248.562
729.880	254.713
730.008	252.600
730.137	248.613
730.265	253.275
730.393	254.650
730.521	247.713
730.649	258.312
730.777	250.988
730.905	249.912
731.033	248.363
731.162	249.963
731.290	252.400
731.418	246.825
731.546	270.913
731.674	248.025
731.802	244.512
731.930	246.125
732.058	243.738
732.187	244.375
732.315	241.550
732.443	246.850
732.571	242.088
732.699	240.250
732.827	240.000
732.955	237.512
733.083	234.488
733.212	235.825
733.340	235.588
733.468	239.012
733.596	235.300
733.724	232.637
733.852	235.488
733.980	235.150
734.108	238.375
734.237	239.613
734.365	227.800
734.493	241.613
734.621	227.887
734.749	232.463
734.877	235.575
735.005	226.937
735.133	233.762
735.262	229.963
735.390	229.475
735.518	231.012
735.646	225.463
735.774	226.887
735.902	230.975
736.030	226.162
736.158	237.062
736.287	226.562
736.415	227.925
736.543	226.825
736.671	228.887
736.799	221.050
736.927	231.363
737.055	226.375
737.183	221.325
737.312	223.850
737.440	233.963
737.568	238.500
737.696	222.450
737.824	221.750
737.952	237.912
738.080	223.012
738.208	226.738
738.337	220.812
738.465	227.325
738.593	218.062
738.721	213.512
738.849	219.287
738.977	223.100
739.105	215.875
739.233	217.613
739.362	215.075
739.490	211.937
739.618	215.375
739.746	214.225
739.874	224.400
740.002	217.662
740.130	214.738
740.258	221.437
740.387	213.812
740.515	204.625
740.643	218.250
740.771	224.700
740.899	214.000
741.027	214.588
741.155	215.675
741.283	208.088
741.412	208.687
741.540	206.200
741.668	210.887
741.796	209.863
741.924	212.037
742.052	209.825
742.180	205.325
742.308	205.425
742.437	208.588
742.565	214.912
742.693	209.825
742.821	207.525
742.949	203.150
743.077	207.838
