Referenz_HF_PP_at_750.00nm_cut_at_1008.00Y_01.dat
15.05.2023
12:41:00
cut middle at Y: 1008.00
top cursor: 1048 down cursor: 968 mean of: 80 lines , 2560 datapoints
wavelength(nm)	intensity[arb. units]
585.996	2819.125
586.124	2723.162
586.252	2698.425
586.380	2737.925
586.508	2790.525
586.637	2740.825
586.765	2709.200
586.893	2742.387
587.021	2783.713
587.149	2841.088
587.277	2766.062
587.405	2865.125
587.533	2774.625
587.662	2938.713
587.790	2900.150
587.918	2760.838
588.046	2779.650
588.174	2766.963
588.302	2774.925
588.430	2820.350
588.558	2790.437
588.687	2769.125
588.815	2783.375
588.943	2767.200
589.071	2775.300
589.199	2816.500
589.327	2774.250
589.455	2752.175
589.583	2884.963
589.712	2819.475
589.840	2765.312
589.968	2756.287
590.096	2739.838
590.224	2800.275
590.352	2744.100
590.480	2779.625
590.608	2772.300
590.737	2874.225
590.865	2894.425
590.993	2749.875
591.121	2745.900
591.249	2790.425
591.377	2747.075
591.505	2782.225
591.633	2870.675
591.762	2791.625
591.890	2994.600
592.018	2735.725
592.146	2748.550
592.274	2790.363
592.402	2760.175
592.530	2772.300
592.658	3001.075
592.787	2827.325
592.915	2950.275
593.043	2799.850
593.171	2790.650
593.299	2780.012
593.427	2798.325
593.555	2773.162
593.683	2775.025
593.812	2781.775
593.940	2820.988
594.068	2772.200
594.196	2815.637
594.324	2818.700
594.452	2829.175
594.580	2828.662
594.708	2851.187
594.837	2830.713
594.965	2941.450
595.093	2888.925
595.221	2931.412
595.349	3048.213
595.477	2877.075
595.605	2910.000
595.733	2871.175
595.862	3108.012
595.990	2915.937
596.118	2920.437
596.246	3108.525
596.374	2963.025
596.502	2912.762
596.630	2964.662
596.758	2903.762
596.887	2955.375
597.015	2930.412
597.143	2936.675
597.271	2921.925
597.399	2896.400
597.527	2910.125
597.655	2924.062
597.783	2905.500
597.912	2917.200
598.040	2953.050
598.168	3012.037
598.296	2901.787
598.424	2954.125
598.552	2976.600
598.680	2886.988
598.808	3077.950
598.937	2917.875
599.065	2930.625
599.193	3034.537
599.321	3036.512
599.449	2943.137
599.577	2906.588
599.705	3001.137
599.833	2889.150
599.962	2898.075
600.090	2978.025
600.218	2915.275
600.346	3015.025
600.474	2895.500
600.602	2842.475
600.730	2917.562
600.858	2860.175
600.987	3051.625
601.115	2913.925
601.243	2870.625
601.371	2883.575
601.499	2883.975
601.627	2937.925
601.755	2896.262
601.883	2953.150
602.012	2913.150
602.140	2885.287
602.268	3018.937
602.396	2929.525
602.524	2941.338
602.652	2934.350
602.780	2924.463
602.908	2916.975
603.037	2996.950
603.165	2935.637
603.293	2993.387
603.421	2962.800
603.549	2984.312
603.677	3040.312
603.805	2992.325
603.933	3003.363
604.062	3106.988
604.190	3023.863
604.318	2979.988
604.446	3018.100
604.574	3044.575
604.702	3015.450
604.830	3034.750
604.958	3063.613
605.087	3063.562
605.215	3061.363
605.343	3034.725
605.471	3091.475
605.599	3095.800
605.727	3056.675
605.855	3091.825
605.983	3098.162
606.112	3062.437
606.240	3072.475
606.368	3094.100
606.496	3271.838
606.624	3063.300
606.752	3132.537
606.880	3285.162
607.008	3345.125
607.137	3271.262
607.265	3073.238
607.393	3130.287
607.521	3243.012
607.649	3085.088
607.777	3134.850
607.905	3163.375
608.033	3160.613
608.162	3073.550
608.290	3190.113
608.418	3117.025
608.546	3171.588
608.674	3174.512
608.802	3075.937
608.930	3068.162
609.058	3083.113
609.187	3155.425
609.315	3150.062
609.443	3052.175
609.571	3185.625
609.699	3059.613
609.827	3074.625
609.955	3172.687
610.083	3052.238
610.212	3052.875
610.340	3079.113
610.468	3167.762
610.596	3127.488
610.724	3131.812
610.852	3073.075
610.980	3077.850
611.108	3155.162
611.237	3045.575
611.365	3073.738
611.493	3048.637
611.621	3070.213
611.749	3061.488
611.877	3060.412
612.005	3073.250
612.133	3112.525
612.262	3057.713
612.390	3077.050
612.518	3118.175
612.646	3217.463
612.774	3078.750
612.902	3072.450
613.030	3061.100
613.158	3174.850
613.287	3130.175
613.415	3061.950
613.543	3066.875
613.671	3093.400
613.799	3100.625
613.927	3131.300
614.055	3089.113
614.183	3265.088
614.312	3093.912
614.440	3235.262
614.568	3143.750
614.696	3091.988
614.824	3274.762
614.952	3160.100
615.080	3084.613
615.208	3172.012
615.337	3177.512
615.465	3159.812
615.593	3168.725
615.721	3205.125
615.849	3199.037
615.977	3214.200
616.105	3234.687
616.233	3192.338
616.362	3281.238
616.490	3155.250
616.618	3145.887
616.746	3252.625
616.874	3270.262
617.002	3211.887
617.130	3274.162
617.258	3363.662
617.387	3218.537
617.515	3178.800
617.643	3211.463
617.771	3276.300
617.899	3266.125
618.027	3172.475
618.155	3341.863
618.283	3205.113
618.412	3226.162
618.540	3321.012
618.668	3237.238
618.796	3221.125
618.924	3349.425
619.052	3213.238
619.180	3186.025
619.308	3238.950
619.437	3230.150
619.565	3230.325
619.693	3194.287
619.821	3225.275
619.949	3208.287
620.077	3228.750
620.205	3250.125
620.333	3236.613
620.462	3236.650
620.590	3283.825
620.718	3175.800
620.846	3300.575
620.974	3300.787
621.102	3249.062
621.230	3148.287
621.358	3315.238
621.487	3146.137
621.615	3209.025
621.743	3189.700
621.871	3186.500
621.999	3303.887
622.127	3198.950
622.255	3205.525
622.383	3189.113
622.512	3208.387
622.640	3361.338
622.768	3164.387
622.896	3194.187
623.024	3190.950
623.152	3292.725
623.280	3259.713
623.408	3157.375
623.537	3185.075
623.665	3137.050
623.793	3219.075
623.921	3187.312
624.049	3143.387
624.177	3188.037
624.305	3216.975
624.433	3213.062
624.562	3173.338
624.690	3212.425
624.818	3258.150
624.946	3379.463
625.074	3241.350
625.202	3179.100
625.330	3152.662
625.458	3232.200
625.587	3177.625
625.715	3243.588
625.843	3346.812
625.971	3210.625
626.099	3191.125
626.227	3163.400
626.355	3170.250
626.483	3283.100
626.612	3148.113
626.740	3135.863
626.868	3198.412
626.996	3134.825
627.124	3158.562
627.252	3123.600
627.380	3179.338
627.508	3151.512
627.637	3143.925
627.765	3187.600
627.893	3165.988
628.021	3134.425
628.149	3187.550
628.277	3193.937
628.405	3239.100
628.533	3110.963
628.662	3196.175
628.790	3162.687
628.918	3135.775
629.046	3162.450
629.174	3142.287
629.302	3247.988
629.430	3116.062
629.558	3167.350
629.687	3166.150
629.815	3152.475
629.943	3220.937
630.071	3207.588
630.199	3175.637
630.327	3181.950
630.455	3129.425
630.583	3234.963
630.712	3197.125
630.840	3170.812
630.968	3222.500
631.096	3169.312
631.224	3164.725
631.352	3150.088
631.480	3195.575
631.608	3169.988
631.737	3265.187
631.865	3339.325
631.993	3161.625
632.121	3280.662
632.249	3257.500
632.377	3235.588
632.505	3264.037
632.633	3156.600
632.762	3237.100
632.890	3293.588
633.018	3172.575
633.146	3217.750
633.274	3223.713
633.402	3213.137
633.530	3153.363
633.658	3340.637
633.787	3139.575
633.915	3236.562
634.043	3161.238
634.171	3165.137
634.299	3192.375
634.427	3250.088
634.555	3201.613
634.683	3167.287
634.812	3152.075
634.940	3172.437
635.068	3104.338
635.196	3164.838
635.324	3123.850
635.452	3210.825
635.580	3105.912
635.708	3115.425
635.837	3147.275
635.965	3115.187
636.093	3099.825
636.221	3077.262
636.349	3184.387
636.477	3024.300
636.605	3243.325
636.733	3013.088
636.862	3037.012
636.990	3042.338
637.118	3126.275
637.246	3065.238
637.374	3003.800
637.502	3007.213
637.630	2969.662
637.758	3026.625
637.887	2961.825
638.015	2976.838
638.143	2957.812
638.271	2974.463
638.399	2954.762
638.527	2954.350
638.655	2913.400
638.783	3109.488
638.912	2986.863
639.040	2942.350
639.168	2990.387
639.296	2916.463
639.424	3092.675
639.552	2913.300
639.680	2932.375
639.808	2971.475
639.937	2895.488
640.065	2921.700
640.193	2999.387
640.321	2887.588
640.449	2964.213
640.577	3007.850
640.705	2899.425
640.833	3041.450
640.962	2873.700
641.090	2876.675
641.218	2850.075
641.346	2896.150
641.474	2891.738
641.602	2857.175
641.730	2868.088
641.858	2853.925
641.987	2887.838
642.115	2847.613
642.243	2904.925
642.371	2865.687
642.499	2863.988
642.627	2871.713
642.755	2935.900
642.883	2944.475
643.012	2892.037
643.140	2804.050
643.268	2855.250
643.396	2883.463
643.524	2992.700
643.652	2848.425
643.780	2843.225
643.908	2846.012
644.037	2963.687
644.165	2821.037
644.293	2854.725
644.421	2816.175
644.549	2901.812
644.677	2818.475
644.805	2869.450
644.933	2801.500
645.062	2830.213
645.190	2833.187
645.318	2921.762
645.446	2848.275
645.574	2854.437
645.702	2807.675
645.830	3004.687
645.958	2778.925
646.087	3010.700
646.215	2791.863
646.343	3021.300
646.471	2847.338
646.599	2870.000
646.727	2800.187
646.855	2805.937
646.983	2859.637
647.112	2776.963
647.240	2967.113
647.368	2776.488
647.496	2867.312
647.624	2750.512
647.752	2729.200
647.880	2762.275
648.008	2734.450
648.137	2751.287
648.265	2724.575
648.393	2739.187
648.521	2743.200
648.649	2725.562
648.777	2729.738
648.905	2691.200
649.033	2738.850
649.162	2732.175
649.290	2705.300
649.418	2753.963
649.546	2720.275
649.674	2763.713
649.802	2672.912
649.930	2871.338
650.058	2633.850
650.187	2668.637
650.315	2636.875
650.443	2715.300
650.571	2638.275
650.699	2630.475
650.827	2588.787
650.955	2611.875
651.083	2630.187
651.212	2654.738
651.340	2669.925
651.468	2612.600
651.596	2598.912
651.724	2588.000
651.852	2576.175
651.980	2569.100
652.108	2633.687
652.237	2589.387
652.365	2636.662
652.493	2568.162
652.621	2554.912
652.749	2605.825
652.877	2545.213
653.005	2560.088
653.133	2549.287
653.262	2557.900
653.390	2540.162
653.518	2568.850
653.646	2544.738
653.774	2558.613
653.902	2544.475
654.030	2509.887
654.158	2502.975
654.287	2511.225
654.415	2496.875
654.543	2504.187
654.671	2487.988
654.799	2483.125
654.927	2485.150
655.055	2473.762
655.183	2478.900
655.312	2455.000
655.440	2460.988
655.568	2463.062
655.696	2470.988
655.824	2455.137
655.952	2465.363
656.080	2443.037
656.208	2463.650
656.337	2419.588
656.465	2436.775
656.593	2432.937
656.721	2433.225
656.849	2435.750
656.977	2422.450
657.105	2406.175
657.233	2407.675
657.362	2405.762
657.490	2381.525
657.618	2393.000
657.746	2400.838
657.874	2367.350
658.002	2372.225
658.130	2361.025
658.258	2379.113
658.387	2372.037
658.515	2335.150
658.643	2337.037
658.771	2362.750
658.899	2347.100
659.027	2356.200
659.155	2338.225
659.283	2335.350
659.412	2318.637
659.540	2338.787
659.668	2335.450
659.796	2298.613
659.924	2338.287
660.052	2307.725
660.180	2294.650
660.308	2301.650
660.437	2286.613
660.565	2310.437
660.693	2283.588
660.821	2293.787
660.949	2283.950
661.077	2268.025
661.205	2283.687
661.333	2244.488
661.462	2292.387
661.590	2280.175
661.718	2251.525
661.846	2240.537
661.974	2266.225
662.102	2233.000
662.230	2257.500
662.358	2227.213
662.487	2239.613
662.615	2219.637
662.743	2236.963
662.871	2230.975
662.999	2209.025
663.127	2201.875
663.255	2221.500
663.383	2233.375
663.512	2211.162
663.640	2213.687
663.768	2197.687
663.896	2198.400
664.024	2179.275
664.152	2208.475
664.280	2207.975
664.408	2176.350
664.537	2174.113
664.665	2181.325
664.793	2155.050
664.921	2149.325
665.049	2149.575
665.177	2174.700
665.305	2147.950
665.433	2154.900
665.562	2155.000
665.690	2142.512
665.818	2140.812
665.946	2146.925
666.074	2137.312
666.202	2119.075
666.330	2113.338
666.458	2105.387
666.587	2105.600
666.715	2098.887
666.843	2109.088
666.971	2099.137
667.099	2098.312
667.227	2095.787
667.355	2076.488
667.483	2060.625
667.612	2091.037
667.740	2085.287
667.868	2088.675
667.996	2060.562
668.124	2076.075
668.252	2079.000
668.380	2039.325
668.508	2076.500
668.637	2048.200
668.765	2060.000
668.893	2050.275
669.021	2051.687
669.149	2027.513
669.277	2035.175
669.405	2019.213
669.533	2028.200
669.662	2032.912
669.790	1998.937
669.918	2017.400
670.046	2008.187
670.174	1996.975
670.302	1993.263
670.430	1975.075
670.558	1970.812
670.687	1960.725
670.815	1979.775
670.943	1955.775
671.071	1960.200
671.199	1972.025
671.327	1949.275
671.455	1947.287
671.583	1954.175
671.712	1940.187
671.840	1934.412
671.968	1912.537
672.096	1907.325
672.224	1916.138
672.352	1911.550
672.480	1897.737
672.608	1891.713
672.737	1894.213
672.865	1882.487
672.993	1891.888
673.121	1877.900
673.249	1882.475
673.377	1869.100
673.505	1862.425
673.633	1831.575
673.762	1838.300
673.890	1847.287
674.018	1840.450
674.146	1838.725
674.274	1834.062
674.402	1830.825
674.530	1820.388
674.658	1799.525
674.787	1796.162
674.915	1794.687
675.043	1803.312
675.171	1792.312
675.299	1780.000
675.427	1767.812
675.555	1760.475
675.683	1778.800
675.812	1745.250
675.940	1742.225
676.068	1760.162
676.196	1749.013
676.324	1739.425
676.452	1724.050
676.580	1723.750
676.708	1738.838
676.837	1727.800
676.965	1698.475
677.093	1727.075
677.221	1710.787
677.349	1681.250
677.477	1688.562
677.605	1663.350
677.733	1698.987
677.862	1655.412
677.990	1664.037
678.118	1656.237
678.246	1630.225
678.374	1629.125
678.502	1642.075
678.630	1630.950
678.758	1632.437
678.887	1629.700
679.015	1633.912
679.143	1601.487
679.271	1601.237
679.399	1603.250
679.527	1587.987
679.655	1595.350
679.783	1594.812
679.912	1597.975
680.040	1576.662
680.168	1573.100
680.296	1569.187
680.424	1571.287
680.552	1556.425
680.680	1564.588
680.808	1537.338
680.937	1547.975
681.065	1542.775
681.193	1535.925
681.321	1538.862
681.449	1526.450
681.577	1527.475
681.705	1502.825
681.833	1504.225
681.962	1510.263
682.090	1524.562
682.218	1514.975
682.346	1500.437
682.474	1498.013
682.602	1490.537
682.730	1496.800
682.858	1479.287
682.987	1483.075
683.115	1482.612
683.243	1463.388
683.371	1474.575
683.499	1457.675
683.627	1476.025
683.755	1467.475
683.883	1462.737
684.012	1448.638
684.140	1453.862
684.268	1441.912
684.396	1445.100
684.524	1453.138
684.652	1451.175
684.780	1436.888
684.908	1426.162
685.037	1425.362
685.165	1431.300
685.293	1423.312
685.421	1410.925
685.549	1418.700
685.677	1415.388
685.805	1404.125
685.933	1421.088
686.062	1395.500
686.190	1400.500
686.318	1405.213
686.446	1403.325
686.574	1387.287
686.702	1400.662
686.830	1391.300
686.958	1381.487
687.087	1389.312
687.215	1369.187
687.343	1358.763
687.471	1365.987
687.599	1361.537
687.727	1349.300
687.855	1357.500
687.983	1355.650
688.112	1348.437
688.240	1337.100
688.368	1341.437
688.496	1343.400
688.624	1332.062
688.752	1329.987
688.880	1316.075
689.008	1316.562
689.137	1322.737
689.265	1311.600
689.393	1299.700
689.521	1303.687
689.649	1302.850
689.777	1307.600
689.905	1292.550
690.033	1303.000
690.162	1287.963
690.290	1280.500
690.418	1269.625
690.546	1303.725
690.674	1290.275
690.802	1270.300
690.930	1267.100
691.058	1263.162
691.187	1248.138
691.315	1262.275
691.443	1253.500
691.571	1241.475
691.699	1227.850
691.827	1237.100
691.955	1239.912
692.083	1234.725
692.212	1214.112
692.340	1227.350
692.468	1228.338
692.596	1210.112
692.724	1203.687
692.852	1198.088
692.980	1205.850
693.108	1196.950
693.237	1191.325
693.365	1178.463
693.493	1183.025
693.621	1173.475
693.749	1163.600
693.877	1158.650
694.005	1148.025
694.133	1170.225
694.262	1157.825
694.390	1148.062
694.518	1129.150
694.646	1140.175
694.774	1146.775
694.902	1126.925
695.030	1145.013
695.158	1115.638
695.287	1125.138
695.415	1111.513
695.543	1124.412
695.671	1115.225
695.799	1103.175
695.927	1104.463
696.055	1088.487
696.183	1121.812
696.312	1104.400
696.440	1090.525
696.568	1075.112
696.696	1084.425
696.824	1073.687
696.952	1073.513
697.080	1062.662
697.208	1081.437
697.337	1049.350
697.465	1059.662
697.593	1042.600
697.721	1040.550
697.849	1040.013
697.977	1050.662
698.105	1045.388
698.233	1048.963
698.362	1033.338
698.490	1023.337
698.618	1027.912
698.746	1020.138
698.874	1020.825
699.002	1030.187
699.130	1024.787
699.258	1010.600
699.387	998.150
699.515	999.487
699.643	1003.937
699.771	1006.612
699.899	990.200
700.027	987.737
700.155	982.187
700.283	986.675
700.412	985.300
700.540	971.125
700.668	961.575
700.796	966.900
700.924	956.225
701.052	963.462
701.180	953.763
701.308	958.475
701.437	936.913
701.565	945.612
701.693	939.362
701.821	957.163
701.949	942.862
702.077	917.925
702.205	929.538
702.333	925.737
702.462	928.663
702.590	911.862
702.718	921.275
702.846	910.100
702.974	915.975
703.102	907.475
703.230	908.800
703.358	891.500
703.487	882.950
703.615	901.625
703.743	880.550
703.871	898.612
703.999	886.325
704.127	870.587
704.255	868.850
704.383	886.000
704.512	858.663
704.640	869.475
704.768	858.663
704.896	854.013
705.024	851.513
705.152	860.913
705.280	850.413
705.408	851.150
705.537	850.888
705.665	838.212
705.793	843.888
705.921	823.913
706.049	840.400
706.177	829.487
706.305	825.900
706.433	823.163
706.562	811.075
706.690	812.225
706.818	808.850
706.946	806.937
707.074	805.550
707.202	803.437
707.330	795.225
707.458	795.788
707.587	779.800
707.715	794.562
707.843	792.925
707.971	794.812
708.099	791.050
708.227	772.638
708.355	781.200
708.483	769.663
708.612	767.987
708.740	771.538
708.868	759.788
708.996	760.212
709.124	765.450
709.252	753.375
709.380	763.375
709.508	738.325
709.637	752.712
709.765	749.000
709.893	739.587
710.021	749.087
710.149	734.050
710.277	743.725
710.405	735.388
710.533	724.462
710.662	730.687
710.790	731.825
710.918	725.325
711.046	735.225
711.174	717.987
711.302	715.350
711.430	707.175
711.558	718.788
711.687	709.312
711.815	708.150
711.943	714.200
712.071	697.025
712.199	708.125
712.327	696.138
712.455	690.225
712.583	690.513
712.712	708.425
712.840	691.837
712.968	678.112
713.096	683.825
713.224	683.487
713.352	671.650
713.480	666.237
713.608	668.000
713.737	667.837
713.865	660.650
713.993	663.450
714.121	661.000
714.249	663.625
714.377	654.450
714.505	670.712
714.633	655.312
714.762	644.362
714.890	645.462
715.018	650.925
715.146	641.675
715.274	644.337
715.402	637.100
715.530	638.225
715.658	637.087
715.787	639.612
715.915	628.562
716.043	624.175
716.171	631.725
716.299	639.663
716.427	626.225
716.555	624.275
716.683	621.312
716.812	620.263
716.940	614.325
717.068	607.675
717.196	608.862
717.324	608.600
717.452	604.150
717.580	599.400
717.708	603.663
717.837	609.575
717.965	601.600
718.093	587.525
718.221	589.112
718.349	595.000
718.477	591.475
718.605	585.425
718.733	589.112
718.862	574.550
718.990	584.737
719.118	576.263
719.246	574.562
719.374	568.625
719.502	585.612
719.630	582.337
719.758	566.575
719.887	571.225
720.015	566.875
720.143	554.750
720.271	563.062
720.399	568.087
720.527	555.337
720.655	553.962
720.783	543.413
720.912	549.250
721.040	559.200
721.168	549.850
721.296	555.825
721.424	543.362
721.552	533.725
721.680	541.900
721.808	542.300
721.937	540.013
722.065	538.612
722.193	524.700
722.321	533.200
722.449	522.650
722.577	529.500
722.705	517.150
722.833	516.462
722.962	521.388
723.090	506.200
723.218	506.425
723.346	510.887
723.474	509.762
723.602	511.325
723.730	506.288
723.858	511.250
723.987	508.850
724.115	499.350
724.243	504.812
724.371	491.762
724.499	500.137
724.627	493.000
724.755	491.937
724.883	497.775
725.012	485.450
725.140	479.738
725.268	491.462
725.396	479.837
725.524	473.075
725.652	477.863
725.780	478.300
725.908	471.475
726.037	473.275
726.165	469.038
726.293	464.312
726.421	465.137
726.549	469.212
726.677	463.875
726.805	461.363
726.933	457.950
727.062	453.525
727.190	455.562
727.318	457.163
727.446	455.488
727.574	456.450
727.702	446.400
727.830	447.288
727.958	449.200
728.087	442.613
728.215	442.238
728.343	440.062
728.471	442.325
728.599	434.587
728.727	432.288
728.855	437.425
728.983	431.675
729.112	427.975
729.240	430.075
729.368	426.812
729.496	434.512
729.624	433.900
729.752	426.475
729.880	422.962
730.008	419.875
730.137	419.600
730.265	418.425
730.393	422.600
730.521	412.975
730.649	420.163
730.777	413.100
730.905	411.525
731.033	413.988
731.162	408.637
731.290	405.050
731.418	407.613
731.546	425.312
731.674	399.137
731.802	407.700
731.930	407.025
732.058	401.238
732.187	403.800
732.315	393.775
732.443	402.725
732.571	392.038
732.699	391.562
732.827	392.387
732.955	388.863
733.083	387.187
733.212	383.825
733.340	386.500
733.468	378.725
733.596	386.650
733.724	378.825
733.852	383.062
733.980	373.262
734.108	388.500
734.237	386.800
734.365	376.475
734.493	382.212
734.621	380.375
734.749	378.238
734.877	370.875
735.005	373.850
735.133	375.562
735.262	372.962
735.390	368.512
735.518	366.363
735.646	365.950
735.774	361.163
735.902	366.462
736.030	367.038
736.158	371.712
736.287	364.687
736.415	365.550
736.543	361.625
736.671	360.687
736.799	362.075
736.927	366.762
737.055	358.375
737.183	356.900
