Referenz_PS_at_750.00nm_cut_at_1008.00Y_01.dat
15.05.2023
12:36:24
cut middle at Y: 1008.00
top cursor: 1048 down cursor: 968 mean of: 80 lines , 2560 datapoints
wavelength(nm)	intensity[arb. units]
585.996	850.375
586.124	843.300
586.252	830.875
586.380	820.150
586.508	827.513
586.637	822.038
586.765	831.350
586.893	823.775
587.021	822.612
587.149	837.675
587.277	839.138
587.405	838.163
587.533	828.575
587.662	832.138
587.790	852.875
587.918	833.812
588.046	837.825
588.174	831.450
588.302	839.675
588.430	839.875
588.558	831.500
588.687	843.312
588.815	865.075
588.943	847.025
589.071	838.800
589.199	846.950
589.327	834.987
589.455	818.263
589.583	839.562
589.712	845.750
589.840	840.300
589.968	830.538
590.096	833.075
590.224	832.700
590.352	839.513
590.480	839.837
590.608	845.587
590.737	821.087
590.865	841.750
590.993	831.200
591.121	829.350
591.249	836.375
591.377	838.900
591.505	829.087
591.633	829.825
591.762	840.312
591.890	825.487
592.018	832.163
592.146	837.650
592.274	839.450
592.402	817.362
592.530	823.888
592.658	831.800
592.787	834.750
592.915	835.562
593.043	827.562
593.171	832.562
593.299	833.700
593.427	828.337
593.555	838.212
593.683	833.400
593.812	832.175
593.940	841.650
594.068	826.138
594.196	860.375
594.324	834.362
594.452	837.263
594.580	846.763
594.708	839.837
594.837	835.100
594.965	833.350
595.093	839.700
595.221	847.625
595.349	850.788
595.477	843.038
595.605	844.975
595.733	863.925
595.862	838.600
595.990	840.437
596.118	847.825
596.246	858.075
596.374	867.100
596.502	867.913
596.630	859.250
596.758	859.975
596.887	864.812
597.015	867.050
597.143	849.650
597.271	863.663
597.399	863.263
597.527	857.725
597.655	851.825
597.783	859.337
597.912	848.237
598.040	873.450
598.168	855.812
598.296	847.125
598.424	848.312
598.552	852.925
598.680	848.725
598.808	838.237
598.937	852.000
599.065	851.362
599.193	851.987
599.321	838.625
599.449	850.975
599.577	846.237
599.705	841.000
599.833	837.362
599.962	839.450
600.090	835.275
600.218	845.175
600.346	849.075
600.474	842.275
600.602	838.388
600.730	841.650
600.858	848.100
600.987	839.825
601.115	847.300
601.243	836.312
601.371	837.612
601.499	839.300
601.627	845.375
601.755	848.400
601.883	840.475
602.012	838.237
602.140	836.675
602.268	842.625
602.396	856.913
602.524	851.187
602.652	854.450
602.780	845.987
602.908	851.200
603.037	852.950
603.165	848.800
603.293	865.425
603.421	871.400
603.549	852.962
603.677	884.362
603.805	849.600
603.933	863.925
604.062	869.288
604.190	874.600
604.318	856.325
604.446	884.038
604.574	876.400
604.702	874.687
604.830	866.475
604.958	870.562
605.087	889.437
605.215	879.125
605.343	905.325
605.471	884.462
605.599	898.300
605.727	894.437
605.855	912.800
605.983	896.013
606.112	904.837
606.240	899.062
606.368	908.487
606.496	903.200
606.624	889.712
606.752	900.700
606.880	907.850
607.008	921.425
607.137	916.775
607.265	916.913
607.393	920.500
607.521	910.538
607.649	918.750
607.777	906.812
607.905	904.462
608.033	914.450
608.162	922.425
608.290	903.975
608.418	920.650
608.546	922.275
608.674	925.675
608.802	906.100
608.930	917.187
609.058	912.263
609.187	912.413
609.315	905.987
609.443	913.175
609.571	913.100
609.699	921.850
609.827	911.263
609.955	895.062
610.083	911.487
610.212	898.675
610.340	903.750
610.468	907.475
610.596	915.538
610.724	897.975
610.852	912.575
610.980	910.513
611.108	903.862
611.237	910.413
611.365	911.275
611.493	903.175
611.621	912.087
611.749	913.325
611.877	917.913
612.005	897.337
612.133	905.325
612.262	896.487
612.390	910.638
612.518	914.850
612.646	910.362
612.774	917.062
612.902	910.575
613.030	903.587
613.158	910.675
613.287	941.350
613.415	906.587
613.543	908.913
613.671	909.437
613.799	928.937
613.927	920.312
614.055	914.850
614.183	915.800
614.312	912.875
614.440	919.437
614.568	911.850
614.696	929.750
614.824	921.237
614.952	928.150
615.080	931.888
615.208	934.513
615.337	936.987
615.465	927.013
615.593	947.337
615.721	931.000
615.849	939.112
615.977	948.950
616.105	944.800
616.233	937.850
616.362	943.475
616.490	932.337
616.618	948.638
616.746	931.288
616.874	947.737
617.002	939.437
617.130	948.675
617.258	945.400
617.387	956.312
617.515	950.687
617.643	951.950
617.771	960.237
617.899	954.050
618.027	946.675
618.155	955.612
618.283	951.038
618.412	965.913
618.540	952.312
618.668	956.650
618.796	948.337
618.924	960.788
619.052	949.212
619.180	960.288
619.308	967.187
619.437	963.300
619.565	965.638
619.693	951.600
619.821	959.038
619.949	954.475
620.077	958.725
620.205	962.100
620.333	959.288
620.462	954.450
620.590	965.625
620.718	972.725
620.846	956.663
620.974	988.025
621.102	957.400
621.230	952.825
621.358	986.837
621.487	965.638
621.615	964.212
621.743	973.075
621.871	958.612
621.999	956.875
622.127	964.425
622.255	955.763
622.383	960.337
622.512	945.350
622.640	959.225
622.768	955.800
622.896	951.275
623.024	941.638
623.152	960.413
623.280	955.112
623.408	955.100
623.537	948.300
623.665	942.875
623.793	952.888
623.921	942.300
624.049	943.212
624.177	944.325
624.305	941.500
624.433	952.962
624.562	948.837
624.690	941.538
624.818	949.388
624.946	954.763
625.074	947.263
625.202	949.987
625.330	952.100
625.458	937.437
625.587	942.950
625.715	941.150
625.843	935.925
625.971	945.812
626.099	959.288
626.227	938.750
626.355	933.562
626.483	943.425
626.612	934.788
626.740	938.150
626.868	953.538
626.996	936.913
627.124	924.425
627.252	928.450
627.380	950.300
627.508	935.625
627.637	936.650
627.765	932.788
627.893	949.263
628.021	944.825
628.149	961.500
628.277	971.375
628.405	966.962
628.533	954.687
628.662	933.987
628.790	951.950
628.918	934.775
629.046	933.187
629.174	931.237
629.302	943.013
629.430	947.950
629.558	945.500
629.687	950.100
629.815	946.575
629.943	947.013
630.071	943.212
630.199	945.375
630.327	955.925
630.455	938.013
630.583	959.937
630.712	958.500
630.840	952.638
630.968	964.425
631.096	960.925
631.224	954.100
631.352	965.525
631.480	961.163
631.608	953.250
631.737	949.150
631.865	966.950
631.993	957.825
632.121	962.013
632.249	971.087
632.377	969.312
632.505	969.275
632.633	949.350
632.762	959.675
632.890	966.913
633.018	968.862
633.146	971.975
633.274	968.212
633.402	956.975
633.530	968.987
633.658	976.650
633.787	954.337
633.915	964.725
634.043	962.112
634.171	969.187
634.299	957.388
634.427	961.687
634.555	954.562
634.683	972.725
634.812	953.687
634.940	963.325
635.068	946.500
635.196	959.413
635.324	962.612
635.452	966.862
635.580	952.413
635.708	949.337
635.837	961.837
635.965	955.300
636.093	962.300
636.221	959.825
636.349	956.737
636.477	952.962
636.605	953.150
636.733	946.675
636.862	948.000
636.990	932.388
637.118	947.437
637.246	950.425
637.374	937.050
637.502	928.750
637.630	945.212
637.758	952.913
637.887	956.837
638.015	943.625
638.143	945.038
638.271	924.187
638.399	930.375
638.527	933.075
638.655	933.487
638.783	943.062
638.912	929.263
639.040	927.475
639.168	932.937
639.296	921.462
639.424	938.712
639.552	933.475
639.680	954.163
639.808	926.862
639.937	911.300
640.065	926.500
640.193	922.550
640.321	910.925
640.449	928.013
640.577	921.725
640.705	915.138
640.833	916.725
640.962	921.337
641.090	912.350
641.218	916.687
641.346	902.425
641.474	908.850
641.602	892.325
641.730	907.175
641.858	921.513
641.987	907.087
642.115	907.100
642.243	910.650
642.371	927.200
642.499	903.025
642.627	913.038
642.755	907.312
642.883	910.487
643.012	907.750
643.140	904.900
643.268	903.950
643.396	912.525
643.524	904.362
643.652	914.775
643.780	911.013
643.908	909.275
644.037	902.350
644.165	908.687
644.293	904.200
644.421	898.687
644.549	914.263
644.677	914.025
644.805	897.400
644.933	898.700
645.062	902.388
645.190	881.950
645.318	884.362
645.446	912.487
645.574	907.450
645.702	897.125
645.830	905.175
645.958	901.950
646.087	896.987
646.215	900.400
646.343	897.450
646.471	906.062
646.599	893.888
646.727	891.812
646.855	889.050
646.983	897.900
647.112	899.025
647.240	906.900
647.368	877.288
647.496	898.675
647.624	899.038
647.752	893.500
647.880	898.937
648.008	887.212
648.137	885.225
648.265	886.587
648.393	889.925
648.521	889.288
648.649	884.413
648.777	882.937
648.905	897.150
649.033	862.300
649.162	872.163
649.290	879.200
649.418	869.388
649.546	871.125
649.674	869.987
649.802	877.388
649.930	872.200
650.058	868.150
650.187	876.663
650.315	869.325
650.443	863.638
650.571	868.487
650.699	871.462
650.827	874.687
650.955	857.325
651.083	856.337
651.212	850.350
651.340	853.125
651.468	857.987
651.596	843.312
651.724	858.337
651.852	852.500
651.980	833.437
652.108	845.687
652.237	837.000
652.365	843.538
652.493	849.650
652.621	833.525
652.749	840.625
652.877	834.425
653.005	838.837
653.133	845.837
653.262	833.487
653.390	835.587
653.518	830.487
653.646	831.150
653.774	835.837
653.902	838.300
654.030	826.725
654.158	817.987
654.287	835.087
654.415	813.538
654.543	825.150
654.671	818.550
654.799	815.950
654.927	829.962
655.055	818.750
655.183	803.513
655.312	814.675
655.440	819.187
655.568	805.288
655.696	812.700
655.824	816.450
655.952	804.450
656.080	798.587
656.208	811.687
656.337	800.913
656.465	802.888
656.593	811.125
656.721	808.437
656.849	813.388
656.977	799.650
657.105	790.375
657.233	799.125
657.362	790.038
657.490	796.913
657.618	779.888
657.746	795.112
657.874	780.413
658.002	777.587
658.130	786.350
658.258	779.575
658.387	781.775
658.515	768.325
658.643	775.450
658.771	783.737
658.899	780.888
659.027	778.212
659.155	781.663
659.283	771.800
659.412	771.038
659.540	779.550
659.668	779.712
659.796	770.538
659.924	777.837
660.052	773.937
660.180	765.763
660.308	775.587
660.437	756.900
660.565	766.163
660.693	757.800
660.821	763.100
660.949	765.763
661.077	762.312
661.205	755.300
661.333	753.650
661.462	761.487
661.590	774.038
661.718	755.675
661.846	748.000
661.974	758.013
662.102	750.288
662.230	744.575
662.358	741.900
662.487	755.837
662.615	737.737
662.743	748.875
662.871	741.837
662.999	742.075
663.127	736.987
663.255	748.350
663.383	744.288
663.512	733.475
663.640	741.150
663.768	729.763
663.896	744.913
664.024	729.038
664.152	737.175
664.280	729.750
664.408	723.437
664.537	732.737
664.665	727.250
664.793	721.612
664.921	718.437
665.049	721.612
665.177	733.513
665.305	720.413
665.433	713.050
665.562	720.138
665.690	728.375
665.818	724.075
665.946	717.362
666.074	708.038
666.202	721.913
666.330	719.612
666.458	710.825
666.587	717.700
666.715	719.288
666.843	712.737
666.971	714.925
667.099	710.525
667.227	716.013
667.355	707.562
667.483	699.288
667.612	711.450
667.740	701.513
667.868	717.425
667.996	707.138
668.124	694.312
668.252	698.087
668.380	697.112
668.508	706.350
668.637	692.750
668.765	697.725
668.893	688.825
669.021	691.737
669.149	686.400
669.277	689.837
669.405	682.413
669.533	698.325
669.662	692.125
669.790	693.263
669.918	693.275
670.046	681.087
670.174	685.962
670.302	689.875
670.430	678.625
670.558	669.800
670.687	670.062
670.815	676.663
670.943	684.163
671.071	678.875
671.199	680.300
671.327	680.663
671.455	674.538
671.583	672.212
671.712	666.900
671.840	671.413
671.968	662.950
672.096	663.312
672.224	667.175
672.352	657.062
672.480	661.212
672.608	653.888
672.737	659.487
672.865	646.525
672.993	655.275
673.121	660.800
673.249	653.250
673.377	647.725
673.505	650.475
673.633	643.725
673.762	643.638
673.890	648.663
674.018	646.437
674.146	640.975
674.274	639.525
674.402	637.013
674.530	645.000
674.658	637.763
674.787	634.937
674.915	627.687
675.043	633.425
675.171	624.950
675.299	628.937
675.427	623.112
675.555	623.300
675.683	630.850
675.812	622.425
675.940	625.275
676.068	633.050
676.196	625.487
676.324	616.513
676.452	609.937
676.580	614.750
676.708	610.150
676.837	611.925
676.965	602.675
677.093	609.400
677.221	601.937
677.349	595.725
677.477	597.925
677.605	597.212
677.733	608.700
677.862	597.937
677.990	590.312
678.118	596.625
678.246	589.612
678.374	584.000
678.502	592.250
678.630	584.000
678.758	584.900
678.887	580.400
679.015	591.288
679.143	581.150
679.271	580.725
679.399	584.038
679.527	576.812
679.655	574.562
679.783	579.750
679.912	582.250
680.040	574.675
680.168	571.987
680.296	571.025
680.424	574.025
680.552	568.525
680.680	574.513
680.808	560.350
680.937	562.250
681.065	570.362
681.193	560.400
681.321	564.163
681.449	552.038
681.577	563.362
681.705	550.462
681.833	548.237
681.962	552.937
682.090	551.300
682.218	553.913
682.346	543.212
682.474	551.550
682.602	547.937
682.730	554.937
682.858	553.175
682.987	545.462
683.115	535.100
683.243	542.975
683.371	542.200
683.499	535.362
683.627	548.150
683.755	539.800
683.883	537.888
684.012	531.788
684.140	535.750
684.268	536.687
684.396	529.187
684.524	533.087
684.652	527.275
684.780	536.388
684.908	533.300
685.037	528.750
685.165	530.812
685.293	529.375
685.421	521.175
685.549	525.025
685.677	525.925
685.805	517.875
685.933	520.650
686.062	520.975
686.190	526.937
686.318	515.275
686.446	528.150
686.574	520.800
686.702	522.700
686.830	530.950
686.958	516.550
687.087	513.788
687.215	509.000
687.343	520.212
687.471	508.475
687.599	513.350
687.727	513.362
687.855	512.737
687.983	512.663
688.112	514.925
688.240	505.538
688.368	512.550
688.496	510.712
688.624	513.212
688.752	508.675
688.880	513.775
689.008	501.837
689.137	507.450
689.265	508.125
689.393	501.725
689.521	508.262
689.649	507.087
689.777	505.337
689.905	500.462
690.033	514.525
690.162	505.050
690.290	498.812
690.418	500.413
690.546	518.837
690.674	504.788
690.802	493.762
690.930	492.975
691.058	495.738
691.187	480.000
691.315	495.363
691.443	491.650
691.571	488.300
691.699	478.238
691.827	485.562
691.955	497.163
692.083	490.837
692.212	485.738
692.340	495.812
692.468	488.675
692.596	485.137
692.724	484.988
692.852	484.387
692.980	494.600
693.108	479.225
693.237	483.687
693.365	475.937
693.493	468.988
693.621	470.062
693.749	474.137
693.877	468.113
694.005	468.225
694.133	476.087
694.262	469.163
694.390	471.837
694.518	452.600
694.646	457.712
694.774	466.462
694.902	467.863
695.030	466.837
695.158	463.500
695.287	458.887
695.415	453.775
695.543	464.212
695.671	457.725
695.799	448.650
695.927	450.437
696.055	454.262
696.183	460.837
696.312	458.750
696.440	447.038
696.568	443.125
696.696	451.225
696.824	440.700
696.952	442.325
697.080	444.913
697.208	450.587
697.337	437.025
697.465	435.825
697.593	441.300
697.721	437.488
697.849	435.250
697.977	432.175
698.105	437.087
698.233	432.863
698.362	431.050
698.490	431.050
698.618	428.850
698.746	427.663
698.874	430.238
699.002	432.163
699.130	422.062
699.258	423.687
699.387	419.175
699.515	418.500
699.643	420.337
699.771	424.100
699.899	422.038
700.027	412.675
700.155	414.900
700.283	419.275
700.412	416.012
700.540	410.200
700.668	408.700
700.796	412.212
700.924	406.462
701.052	407.738
701.180	409.625
701.308	404.187
701.437	401.712
701.565	402.925
701.693	399.100
701.821	411.175
701.949	419.575
702.077	397.937
702.205	402.200
702.333	397.425
702.462	396.625
702.590	391.312
702.718	393.825
702.846	387.900
702.974	400.875
703.102	390.512
703.230	391.825
703.358	387.137
703.487	383.788
703.615	393.550
703.743	382.012
703.871	396.512
703.999	380.038
704.127	385.512
704.255	375.613
704.383	387.587
704.512	379.550
704.640	379.788
704.768	375.750
704.896	372.525
705.024	374.663
705.152	376.525
705.280	373.775
705.408	378.050
705.537	373.150
705.665	372.562
705.793	368.525
705.921	366.050
706.049	377.250
706.177	363.538
706.305	364.800
706.433	363.525
706.562	368.413
706.690	361.587
706.818	358.300
706.946	360.350
707.074	355.238
707.202	359.863
707.330	357.363
707.458	360.250
707.587	354.775
707.715	356.225
707.843	351.462
707.971	361.150
708.099	350.387
708.227	347.450
708.355	347.050
708.483	347.875
708.612	346.387
708.740	346.200
708.868	341.400
708.996	350.962
709.124	357.050
709.252	343.812
709.380	354.000
709.508	339.038
709.637	343.337
709.765	335.775
709.893	337.363
710.021	342.937
710.149	333.825
710.277	342.788
710.405	334.875
710.533	326.663
710.662	335.288
710.790	335.163
710.918	332.725
711.046	327.675
711.174	328.937
711.302	332.475
711.430	329.062
711.558	329.325
711.687	322.050
711.815	326.387
711.943	329.012
712.071	323.650
712.199	330.950
712.327	327.325
712.455	319.663
712.583	320.150
712.712	334.775
712.840	319.400
712.968	318.700
713.096	322.750
713.224	322.600
713.352	316.163
713.480	312.113
713.608	308.275
713.737	312.925
713.865	315.350
713.993	310.663
714.121	308.712
714.249	313.238
714.377	307.900
714.505	315.550
714.633	307.750
714.762	306.187
714.890	318.975
715.018	313.437
715.146	303.100
715.274	313.437
715.402	305.275
715.530	306.850
715.658	306.788
715.787	305.400
715.915	298.175
716.043	298.350
716.171	301.600
716.299	316.887
716.427	297.500
716.555	307.225
716.683	306.187
716.812	306.613
716.940	305.225
717.068	299.875
717.196	302.387
717.324	301.887
717.452	294.375
717.580	289.988
717.708	293.387
717.837	304.175
717.965	295.600
718.093	285.150
718.221	290.863
718.349	292.475
718.477	292.413
718.605	289.875
718.733	295.175
718.862	283.262
718.990	288.087
719.118	288.512
719.246	282.650
719.374	288.937
719.502	289.988
719.630	299.725
719.758	281.288
719.887	285.887
720.015	288.900
720.143	283.038
720.271	286.687
720.399	282.475
720.527	292.262
720.655	279.725
720.783	279.512
720.912	289.163
721.040	286.988
721.168	279.913
721.296	280.762
721.424	282.575
721.552	274.012
721.680	275.512
721.808	284.275
721.937	278.587
722.065	273.437
722.193	268.825
722.321	273.625
722.449	270.825
722.577	274.837
722.705	270.700
722.833	268.913
722.962	274.113
723.090	262.075
723.218	267.962
723.346	267.275
723.474	270.700
723.602	270.225
723.730	264.913
723.858	276.475
723.987	269.600
724.115	263.562
724.243	266.850
724.371	264.600
724.499	270.837
724.627	264.125
724.755	266.850
724.883	264.812
725.012	265.375
725.140	257.113
725.268	263.725
725.396	261.712
725.524	259.625
725.652	262.875
725.780	251.312
725.908	259.812
726.037	255.650
726.165	257.675
726.293	249.187
726.421	258.750
726.549	264.625
726.677	251.375
726.805	254.687
726.933	260.250
727.062	248.762
727.190	256.825
727.318	246.125
727.446	249.200
727.574	255.062
727.702	249.375
727.830	251.238
727.958	257.700
728.087	251.100
728.215	246.600
728.343	243.687
728.471	251.187
728.599	241.687
728.727	250.213
728.855	246.350
728.983	247.488
729.112	241.988
729.240	246.925
729.368	244.975
729.496	250.350
729.624	244.250
729.752	245.725
729.880	247.012
730.008	241.250
730.137	239.488
730.265	242.825
730.393	242.525
730.521	238.613
730.649	244.363
730.777	237.863
730.905	239.287
731.033	238.550
731.162	240.400
731.290	244.275
731.418	233.350
731.546	259.075
731.674	232.262
731.802	237.900
731.930	233.787
732.058	234.125
732.187	231.475
732.315	234.350
732.443	239.963
732.571	232.950
732.699	229.387
732.827	231.275
732.955	232.150
733.083	231.100
733.212	225.437
733.340	232.000
733.468	227.187
733.596	223.275
733.724	223.475
733.852	226.725
733.980	222.450
734.108	226.100
734.237	229.613
734.365	222.425
734.493	229.450
734.621	225.325
734.749	224.050
734.877	222.912
735.005	219.363
735.133	219.238
735.262	212.400
735.390	221.125
735.518	215.400
735.646	223.150
735.774	218.213
735.902	220.412
736.030	215.825
736.158	226.787
736.287	216.863
736.415	216.562
736.543	218.600
736.671	216.137
736.799	216.512
736.927	222.500
737.055	214.387
737.183	211.625
737.312	217.213
737.440	223.937
737.568	227.037
737.696	217.137
737.824	215.762
737.952	224.838
738.080	216.875
738.208	220.275
738.337	213.200
738.465	216.687
738.593	208.262
738.721	204.838
738.849	212.125
738.977	213.687
739.105	206.537
739.233	207.600
739.362	201.012
739.490	202.825
739.618	208.775
739.746	202.988
739.874	213.700
740.002	204.675
740.130	197.900
740.258	205.762
740.387	207.000
740.515	198.238
740.643	208.412
740.771	212.200
740.899	203.800
741.027	197.387
741.155	207.150
741.283	194.200
741.412	197.512
741.540	198.050
741.668	195.687
741.796	202.650
741.924	208.000
742.052	206.762
742.180	197.150
742.308	196.750
742.437	197.100
742.565	206.412
742.693	204.325
742.821	200.512
742.949	197.575
743.077	199.187
743.205	195.812
743.333	200.650
743.462	200.225
743.590	199.437
743.718	188.425
743.846	192.425
743.974	195.463
744.102	193.213
744.230	190.900
744.358	188.700
