Referenz_HF_PS_at_750.00nm_cut_at_1008.00Y_01.dat
15.05.2023
12:41:25
cut middle at Y: 1008.00
top cursor: 1048 down cursor: 968 mean of: 80 lines , 2560 datapoints
wavelength(nm)	intensity[arb. units]
585.996	3822.412
586.124	3722.687
586.252	3672.900
586.380	3700.187
586.508	3729.312
586.637	3682.700
586.765	3686.713
586.893	3690.238
587.021	3703.675
587.149	3765.213
587.277	3728.037
587.405	3775.012
587.533	3699.725
587.662	3851.250
587.790	3827.950
587.918	3716.600
588.046	3748.762
588.174	3725.062
588.302	3767.312
588.430	3738.363
588.558	3741.850
588.687	3764.062
588.815	3764.363
588.943	3717.762
589.071	3718.050
589.199	3755.687
589.327	3724.863
589.455	3702.600
589.583	3805.363
589.712	3729.775
589.840	3718.925
589.968	3701.213
590.096	3674.350
590.224	3735.963
590.352	3690.037
590.480	3721.387
590.608	3694.613
590.737	3750.900
590.865	3767.225
590.993	3635.750
591.121	3697.162
591.249	3695.213
591.377	3661.975
591.505	3667.925
591.633	3728.162
591.762	3668.037
591.890	3818.238
592.018	3640.488
592.146	3615.550
592.274	3670.387
592.402	3634.725
592.530	3649.162
592.658	3803.275
592.787	3680.900
592.915	3793.525
593.043	3650.575
593.171	3646.750
593.299	3651.062
593.427	3636.687
593.555	3608.100
593.683	3657.050
593.812	3648.213
593.940	3670.338
594.068	3662.613
594.196	3686.637
594.324	3675.125
594.452	3674.812
594.580	3681.463
594.708	3712.012
594.837	3718.100
594.965	3775.150
595.093	3744.088
595.221	3795.963
595.349	3890.312
595.477	3775.262
595.605	3775.075
595.733	3756.800
595.862	3955.588
595.990	3799.750
596.118	3813.437
596.246	3975.437
596.374	3854.725
596.502	3824.475
596.630	3876.363
596.758	3837.287
596.887	3839.762
597.015	3828.213
597.143	3852.475
597.271	3838.800
597.399	3830.137
597.527	3840.900
597.655	3851.150
597.783	3843.725
597.912	3822.650
598.040	3826.875
598.168	3891.500
598.296	3795.963
598.424	3840.762
598.552	3863.113
598.680	3781.787
598.808	3929.125
598.937	3761.812
599.065	3797.225
599.193	3883.488
599.321	3867.125
599.449	3759.088
599.577	3749.000
599.705	3811.412
599.833	3716.325
599.962	3733.775
600.090	3791.687
600.218	3771.912
600.346	3830.088
600.474	3695.725
600.602	3695.762
600.730	3735.762
600.858	3731.425
600.987	3862.463
601.115	3731.100
601.243	3713.287
601.371	3720.800
601.499	3736.387
601.627	3744.925
601.755	3746.088
601.883	3769.575
602.012	3755.463
602.140	3728.425
602.268	3835.700
602.396	3773.113
602.524	3813.488
602.652	3748.375
602.780	3786.463
602.908	3814.575
603.037	3849.350
603.165	3808.425
603.293	3860.825
603.421	3866.900
603.549	3884.812
603.677	3925.525
603.805	3907.875
603.933	3915.588
604.062	4024.812
604.190	3950.025
604.318	3924.900
604.446	3950.900
604.574	4014.463
604.702	3991.000
604.830	4011.963
604.958	4016.475
605.087	4028.200
605.215	4017.450
605.343	4034.287
605.471	4074.550
605.599	4080.537
605.727	4057.588
605.855	4110.988
605.983	4093.012
606.112	4087.750
606.240	4112.150
606.368	4114.387
606.496	4278.725
606.624	4083.838
606.752	4151.825
606.880	4281.575
607.008	4355.950
607.137	4288.812
607.265	4115.175
607.393	4171.062
607.521	4262.100
607.649	4137.137
607.777	4182.663
607.905	4192.725
608.033	4175.837
608.162	4117.850
608.290	4213.275
608.418	4142.337
608.546	4189.988
608.674	4205.650
608.802	4114.587
608.930	4092.887
609.058	4104.512
609.187	4165.812
609.315	4148.437
609.443	4060.713
609.571	4179.887
609.699	4072.575
609.827	4090.300
609.955	4128.988
610.083	4044.387
610.212	4055.338
610.340	4057.350
610.468	4161.750
610.596	4109.400
610.724	4122.163
610.852	4045.687
610.980	4042.825
611.108	4136.450
611.237	4032.738
611.365	4031.687
611.493	4021.762
611.621	4021.825
611.749	4045.412
611.877	4035.100
612.005	4054.338
612.133	4039.613
612.262	4020.588
612.390	4045.838
612.518	4095.550
612.646	4154.613
612.774	4045.525
612.902	4028.887
613.030	4028.262
613.158	4123.738
613.287	4086.338
613.415	4028.637
613.543	4049.350
613.671	4059.825
613.799	4094.350
613.927	4103.087
614.055	4065.863
614.183	4219.012
614.312	4084.312
614.440	4224.200
614.568	4118.988
614.696	4111.050
614.824	4286.850
614.952	4160.150
615.080	4103.762
615.208	4175.750
615.337	4161.812
615.465	4164.887
615.593	4186.975
615.721	4216.587
615.849	4230.863
615.977	4233.150
616.105	4296.225
616.233	4207.675
616.362	4305.725
616.490	4200.962
616.618	4171.775
616.746	4280.212
616.874	4305.100
617.002	4276.187
617.130	4324.675
617.258	4419.375
617.387	4288.300
617.515	4252.200
617.643	4286.087
617.771	4367.587
617.899	4357.562
618.027	4270.913
618.155	4431.038
618.283	4306.312
618.412	4325.275
618.540	4403.125
618.668	4350.462
618.796	4353.113
618.924	4459.113
619.052	4324.337
619.180	4331.850
619.308	4378.012
619.437	4364.312
619.565	4375.762
619.693	4355.375
619.821	4368.125
619.949	4356.050
620.077	4395.225
620.205	4427.788
620.333	4400.413
620.462	4405.238
620.590	4465.525
620.718	4356.075
620.846	4456.788
620.974	4476.450
621.102	4415.975
621.230	4312.775
621.358	4489.375
621.487	4334.512
621.615	4358.187
621.743	4351.262
621.871	4367.175
621.999	4450.488
622.127	4387.050
622.255	4369.425
622.383	4351.812
622.512	4349.137
622.640	4519.500
622.768	4304.837
622.896	4338.250
623.024	4321.150
623.152	4418.075
623.280	4389.962
623.408	4285.200
623.537	4337.312
623.665	4283.975
623.793	4325.450
623.921	4293.225
624.049	4284.562
624.177	4307.937
624.305	4347.425
624.433	4325.850
624.562	4308.175
624.690	4325.950
624.818	4351.812
624.946	4461.625
625.074	4316.950
625.202	4269.925
625.330	4230.150
625.458	4323.863
625.587	4256.525
625.715	4326.125
625.843	4392.375
625.971	4265.550
626.099	4262.150
626.227	4264.825
626.355	4249.975
626.483	4349.988
626.612	4224.250
626.740	4200.275
626.868	4296.413
626.996	4217.012
627.124	4247.937
627.252	4209.062
627.380	4259.913
627.508	4216.775
627.637	4189.600
627.765	4241.887
627.893	4214.975
628.021	4211.725
628.149	4250.750
628.277	4261.163
628.405	4321.875
628.533	4184.137
628.662	4275.962
628.790	4206.700
628.918	4230.062
629.046	4235.863
629.174	4245.437
629.302	4345.825
629.430	4225.275
629.558	4276.012
629.687	4278.975
629.815	4243.300
629.943	4311.562
630.071	4314.038
630.199	4285.387
630.327	4292.750
630.455	4255.387
630.583	4389.387
630.712	4313.800
630.840	4314.025
630.968	4358.250
631.096	4290.788
631.224	4295.613
631.352	4313.363
631.480	4359.762
631.608	4317.062
631.737	4415.863
631.865	4515.775
631.993	4335.762
632.121	4459.663
632.249	4426.100
632.377	4415.137
632.505	4417.663
632.633	4317.200
632.762	4417.913
632.890	4491.900
633.018	4345.387
633.146	4382.450
633.274	4398.288
633.402	4379.163
633.530	4356.038
633.658	4515.288
633.787	4339.363
633.915	4444.988
634.043	4362.475
634.171	4349.788
634.299	4412.275
634.427	4475.200
634.555	4423.550
634.683	4357.038
634.812	4339.587
634.940	4358.700
635.068	4301.887
635.196	4375.538
635.324	4345.675
635.452	4427.050
635.580	4309.800
635.708	4317.500
635.837	4368.675
635.965	4343.062
636.093	4317.637
636.221	4301.387
636.349	4385.863
636.477	4250.913
636.605	4435.262
636.733	4234.488
636.862	4275.413
636.990	4289.900
637.118	4342.100
637.246	4304.675
637.374	4233.075
637.502	4208.825
637.630	4197.150
637.758	4219.525
637.887	4202.163
638.015	4197.600
638.143	4194.675
638.271	4176.350
638.399	4150.087
638.527	4163.625
638.655	4138.462
638.783	4297.288
638.912	4189.712
639.040	4129.675
639.168	4154.337
639.296	4125.150
639.424	4227.562
639.552	4076.675
639.680	4139.187
639.808	4135.275
639.937	4061.937
640.065	4061.450
640.193	4151.575
640.321	4024.887
640.449	4113.325
640.577	4160.788
640.705	4048.863
640.833	4168.762
640.962	4042.637
641.090	4026.175
641.218	4006.300
641.346	4041.713
641.474	4072.512
641.602	4021.050
641.730	4000.537
641.858	4033.437
641.987	4040.500
642.115	4001.775
642.243	4069.037
642.371	4040.537
642.499	4041.387
642.627	4044.350
642.755	4071.738
642.883	4061.988
643.012	4024.412
643.140	3986.412
643.268	4013.300
643.396	4020.613
643.524	4113.300
643.652	3977.387
643.780	3999.012
643.908	4012.887
644.037	4102.587
644.165	3995.100
644.293	3999.900
644.421	3978.537
644.549	4046.887
644.677	4001.912
644.805	4032.412
644.933	3992.400
645.062	3987.550
645.190	3980.662
645.318	4073.200
645.446	4021.088
645.574	4025.437
645.702	3980.012
645.830	4157.512
645.958	3969.887
646.087	4118.937
646.215	3959.150
646.343	4132.837
646.471	4015.750
646.599	4014.950
646.727	3946.312
646.855	3953.175
646.983	4008.537
647.112	3931.012
647.240	4121.275
647.368	3990.225
647.496	4026.988
647.624	3911.850
647.752	3928.850
647.880	3935.625
648.008	3911.775
648.137	3922.488
648.265	3900.475
648.393	3900.500
648.521	3913.662
648.649	3904.175
648.777	3900.312
648.905	3892.012
649.033	3877.650
649.162	3889.250
649.290	3850.863
649.418	3892.937
649.546	3894.512
649.674	3886.512
649.802	3845.463
649.930	3968.637
650.058	3781.613
650.187	3849.775
650.315	3771.312
650.443	3842.088
650.571	3778.863
650.699	3772.350
650.827	3734.012
650.955	3776.762
651.083	3769.575
651.212	3800.650
651.340	3814.350
651.468	3717.588
651.596	3713.613
651.724	3694.187
651.852	3701.613
651.980	3672.363
652.108	3765.925
652.237	3728.300
652.365	3746.775
652.493	3652.463
652.621	3666.887
652.749	3729.850
652.877	3645.512
653.005	3678.088
653.133	3612.187
653.262	3676.675
653.390	3605.475
653.518	3708.925
653.646	3645.488
653.774	3782.238
653.902	3604.262
654.030	3590.512
654.158	3571.875
654.287	3547.887
654.415	3579.950
654.543	3560.825
654.671	3579.825
654.799	3552.238
654.927	3508.238
655.055	3508.512
655.183	3538.488
655.312	3512.738
655.440	3526.062
655.568	3490.800
655.696	3559.162
655.824	3568.762
655.952	3479.537
656.080	3443.800
656.208	3590.875
656.337	3459.287
656.465	3507.812
656.593	3497.600
656.721	3435.562
656.849	3493.437
656.977	3402.700
657.105	3407.887
657.233	3383.137
657.362	3393.287
657.490	3389.213
657.618	3382.125
657.746	3360.000
657.874	3344.850
658.002	3343.713
658.130	3366.625
658.258	3307.363
658.387	3338.512
658.515	3312.950
658.643	3342.312
658.771	3322.350
658.899	3320.838
659.027	3305.675
659.155	3302.437
659.283	3465.213
659.412	3317.838
659.540	3376.050
659.668	3240.125
659.796	3297.725
659.924	3331.775
660.052	3248.312
660.180	3252.488
660.308	3264.575
660.437	3227.975
660.565	3207.437
660.693	3215.575
660.821	3215.312
660.949	3188.975
661.077	3185.650
661.205	3205.850
661.333	3173.363
661.462	3279.250
661.590	3192.500
661.718	3331.400
661.846	3253.125
661.974	3317.113
662.102	3160.925
662.230	3176.600
662.358	3136.250
662.487	3120.887
662.615	3096.463
662.743	3086.575
662.871	3088.812
662.999	3073.387
663.127	3087.725
663.255	3195.650
663.383	3151.850
663.512	3045.075
663.640	3093.537
663.768	3023.387
663.896	3064.662
664.024	3104.588
664.152	3041.500
664.280	3062.037
664.408	3035.912
664.537	3086.575
664.665	2982.812
664.793	2976.425
664.921	2991.512
665.049	2979.425
665.177	3005.275
665.305	2986.262
665.433	2998.363
665.562	2964.125
665.690	2995.588
665.818	3142.588
665.946	2974.425
666.074	2958.738
666.202	2926.437
666.330	3010.363
666.458	2991.613
666.587	2901.488
666.715	2927.838
666.843	2915.575
666.971	2887.600
667.099	2920.863
667.227	2896.137
667.355	2908.525
667.483	2900.900
667.612	2895.350
667.740	2902.687
667.868	2964.637
667.996	2861.900
668.124	2840.950
668.252	2848.537
668.380	2818.613
668.508	2869.325
668.637	2844.275
668.765	2836.275
668.893	2856.475
669.021	2791.738
669.149	2889.713
669.277	2869.450
669.405	2786.387
669.533	2780.675
669.662	3083.262
669.790	2797.075
669.918	2873.825
670.046	2762.387
670.174	2875.488
670.302	2834.537
670.430	2780.412
670.558	2834.575
670.687	2737.037
670.815	2938.925
670.943	2708.312
671.071	2731.512
671.199	2752.963
671.327	2705.100
671.455	2722.187
671.583	2698.025
671.712	2900.162
671.840	2707.238
671.968	2668.838
672.096	2676.012
672.224	2643.700
672.352	2848.238
672.480	2647.213
672.608	2608.287
672.737	2607.675
672.865	2824.988
672.993	2639.037
673.121	2598.062
673.249	2599.787
673.377	2582.925
673.505	2593.162
673.633	2595.613
673.762	2573.575
673.890	2590.550
674.018	2727.225
674.146	2576.988
674.274	2577.187
674.402	2671.350
674.530	2541.713
674.658	2570.200
674.787	2522.900
674.915	2514.113
675.043	2558.200
675.171	2546.100
675.299	2523.687
675.427	2532.187
675.555	2529.713
675.683	2521.775
675.812	2506.150
675.940	2500.312
676.068	2520.075
676.196	2486.412
676.324	2498.750
676.452	2474.812
676.580	2466.275
676.708	2482.750
676.837	2490.100
676.965	2444.025
677.093	2475.988
677.221	2436.762
677.349	2419.687
677.477	2409.600
677.605	2399.812
677.733	2418.562
677.862	2394.950
677.990	2393.387
678.118	2400.025
678.246	2366.700
678.374	2357.375
678.502	2365.412
678.630	2339.463
678.758	2349.625
678.887	2349.887
679.015	2347.600
679.143	2329.450
679.271	2318.213
679.399	2308.125
679.527	2297.113
679.655	2312.350
679.783	2298.700
679.912	2286.287
680.040	2311.562
680.168	2271.488
680.296	2246.725
680.424	2288.275
680.552	2279.562
680.680	2263.713
680.808	2240.375
680.937	2238.537
681.065	2250.787
681.193	2236.062
681.321	2249.475
681.449	2227.488
681.577	2223.887
681.705	2190.238
681.833	2191.375
681.962	2179.975
682.090	2207.450
682.218	2177.637
682.346	2179.300
682.474	2185.312
682.602	2182.363
682.730	2167.613
682.858	2165.213
682.987	2163.387
683.115	2132.425
683.243	2144.787
683.371	2141.738
683.499	2132.363
683.627	2158.950
683.755	2101.325
683.883	2126.713
684.012	2123.338
684.140	2096.625
684.268	2105.338
684.396	2093.650
684.524	2119.588
684.652	2108.750
684.780	2117.037
684.908	2096.387
685.037	2096.262
685.165	2094.200
685.293	2089.838
685.421	2077.838
685.549	2069.613
685.677	2071.200
685.805	2050.250
685.933	2070.137
686.062	2036.338
686.190	2049.275
686.318	2063.463
686.446	2048.613
686.574	2036.763
686.702	2044.237
686.830	2052.088
686.958	2020.687
687.087	2015.225
687.215	1997.388
687.343	2003.263
687.471	2015.412
687.599	1989.475
687.727	1987.187
687.855	2005.737
687.983	1993.175
688.112	1999.775
688.240	1976.862
688.368	1973.675
688.496	1964.963
688.624	1959.463
688.752	1952.725
688.880	1944.237
689.008	1927.338
689.137	1950.350
689.265	1931.963
689.393	1919.625
689.521	1931.237
689.649	1915.350
689.777	1932.562
689.905	1912.763
690.033	1912.112
690.162	1896.000
690.290	1888.787
690.418	1883.412
690.546	1917.900
690.674	1899.838
690.802	1874.725
690.930	1861.775
691.058	1869.475
691.187	1854.550
691.315	1875.088
691.443	1856.088
691.571	1849.687
691.699	1820.713
691.827	1841.763
691.955	1822.175
692.083	1812.338
692.212	1789.575
692.340	1826.300
692.468	1811.750
692.596	1787.362
692.724	1791.912
692.852	1777.900
692.980	1770.562
693.108	1771.963
693.237	1759.362
693.365	1750.138
693.493	1756.463
693.621	1740.963
693.749	1735.300
693.877	1725.912
694.005	1718.125
694.133	1738.213
694.262	1714.325
694.390	1691.400
694.518	1684.213
694.646	1682.388
694.774	1687.312
694.902	1673.612
695.030	1691.088
695.158	1662.100
695.287	1653.675
695.415	1655.112
695.543	1651.112
695.671	1631.787
695.799	1626.925
695.927	1625.162
696.055	1611.350
696.183	1633.162
696.312	1610.800
696.440	1594.275
696.568	1592.800
696.696	1588.987
696.824	1586.537
696.952	1578.875
697.080	1584.125
697.208	1593.463
697.337	1549.737
697.465	1550.838
697.593	1554.325
697.721	1541.713
697.849	1550.525
697.977	1533.662
698.105	1536.612
698.233	1539.050
698.362	1529.062
698.490	1514.237
698.618	1513.112
698.746	1499.513
698.874	1519.213
699.002	1524.513
699.130	1491.700
699.258	1492.600
699.387	1474.937
699.515	1470.325
699.643	1486.862
699.771	1474.713
699.899	1462.562
700.027	1457.375
700.155	1457.187
700.283	1455.862
700.412	1443.825
700.540	1430.625
700.668	1429.062
700.796	1421.675
700.924	1424.737
701.052	1425.750
701.180	1402.213
701.308	1402.562
701.437	1395.088
701.565	1389.912
701.693	1378.713
701.821	1411.638
701.949	1405.925
702.077	1375.162
702.205	1365.388
702.333	1372.525
702.462	1374.787
702.590	1351.687
702.718	1367.725
702.846	1346.700
702.974	1358.600
703.102	1341.388
703.230	1328.225
703.358	1323.725
703.487	1310.925
703.615	1327.725
703.743	1302.138
703.871	1324.487
703.999	1304.138
704.127	1296.025
704.255	1293.987
704.383	1293.338
704.512	1274.338
704.640	1267.588
704.768	1259.500
704.896	1258.175
705.024	1254.838
705.152	1251.237
705.280	1251.412
705.408	1244.213
705.537	1236.463
705.665	1235.725
705.793	1226.388
705.921	1219.937
706.049	1232.862
706.177	1220.375
706.305	1206.513
706.433	1208.325
706.562	1203.750
706.690	1194.725
706.818	1184.687
706.946	1179.350
707.074	1173.412
707.202	1171.100
707.330	1162.650
707.458	1178.225
707.587	1155.537
707.715	1158.062
707.843	1151.975
707.971	1162.787
708.099	1156.787
708.227	1128.900
708.355	1137.925
708.483	1133.513
708.612	1122.425
708.740	1127.388
708.868	1105.550
708.996	1120.237
709.124	1117.787
709.252	1107.737
709.380	1099.725
709.508	1087.525
709.637	1094.100
709.765	1085.963
709.893	1084.713
710.021	1084.737
710.149	1072.000
710.277	1083.525
710.405	1083.575
710.533	1069.425
710.662	1069.550
710.790	1059.737
710.918	1055.800
711.046	1048.162
711.174	1052.362
711.302	1037.825
711.430	1028.987
711.558	1039.975
711.687	1035.050
711.815	1016.288
711.943	1024.763
712.071	1019.300
712.199	1021.038
712.327	1003.562
712.455	1010.600
712.583	1001.962
712.712	1021.788
712.840	1002.587
712.968	997.612
713.096	995.450
713.224	975.575
713.352	984.937
713.480	973.650
713.608	971.462
713.737	967.038
713.865	963.263
713.993	953.875
714.121	956.763
714.249	956.013
714.377	947.388
714.505	952.400
714.633	943.837
714.762	934.788
714.890	938.712
715.018	935.087
715.146	922.100
715.274	929.900
715.402	913.450
715.530	916.000
715.658	917.638
715.787	918.550
715.915	904.875
716.043	904.437
716.171	910.700
716.299	913.675
716.427	898.150
716.555	898.138
716.683	888.700
716.812	888.962
716.940	888.400
717.068	864.888
717.196	883.587
717.324	863.350
717.452	872.062
717.580	857.562
717.708	856.437
717.837	868.000
717.965	856.187
718.093	848.125
718.221	844.725
718.349	847.675
718.477	840.913
718.605	836.062
718.733	838.962
718.862	830.275
718.990	830.000
719.118	833.913
719.246	826.175
719.374	819.462
719.502	828.900
719.630	831.225
719.758	819.825
719.887	811.587
720.015	818.075
720.143	793.237
720.271	794.900
720.399	802.775
720.527	799.888
720.655	784.925
720.783	796.350
720.912	791.462
721.040	795.763
721.168	784.038
721.296	787.275
721.424	770.513
721.552	775.013
721.680	769.337
721.808	783.075
721.937	773.538
722.065	764.862
722.193	754.538
722.321	768.750
722.449	748.450
722.577	747.788
722.705	741.913
722.833	748.650
722.962	757.925
723.090	730.138
723.218	726.638
723.346	736.875
723.474	736.325
723.602	728.163
723.730	725.825
723.858	737.175
723.987	728.612
724.115	719.388
724.243	718.200
724.371	710.800
724.499	711.175
724.627	713.612
724.755	710.250
724.883	706.962
725.012	704.187
725.140	695.125
725.268	694.212
725.396	684.487
725.524	691.413
725.652	678.350
725.780	683.700
725.908	676.025
726.037	682.788
726.165	674.925
726.293	656.388
726.421	664.138
726.549	675.450
726.677	662.462
726.805	665.150
726.933	665.175
727.062	654.150
727.190	647.100
727.318	650.500
727.446	654.913
727.574	648.200
727.702	646.862
727.830	634.775
727.958	646.825
728.087	636.337
728.215	624.550
728.343	620.837
728.471	634.175
728.599	614.925
728.727	629.225
728.855	624.462
728.983	613.725
729.112	616.538
729.240	613.375
729.368	606.000
729.496	607.312
729.624	606.038
729.752	608.462
729.880	605.413
730.008	603.825
730.137	598.975
730.265	590.013
730.393	584.062
730.521	587.888
730.649	587.812
730.777	592.538
730.905	579.687
731.033	581.513
731.162	580.487
731.290	585.888
731.418	583.913
731.546	598.087
731.674	565.850
731.802	570.425
731.930	568.625
732.058	567.362
732.187	562.525
732.315	558.650
732.443	559.187
732.571	545.587
732.699	549.925
732.827	549.163
732.955	544.437
733.083	545.150
733.212	546.737
733.340	544.250
733.468	540.937
733.596	537.925
733.724	534.175
733.852	542.288
733.980	534.350
734.108	536.687
734.237	539.663
734.365	524.550
734.493	533.888
734.621	526.288
734.749	526.175
734.877	526.562
735.005	511.937
735.133	518.913
735.262	518.700
735.390	506.137
735.518	513.038
735.646	506.750
735.774	507.187
735.902	508.325
736.030	506.012
736.158	513.288
736.287	506.675
736.415	506.200
