sample10_PP_at_750.00nm_cut_at_1008.00Y_01.dat
15.05.2023
11:07:55
cut middle at Y: 1008.00
top cursor: 1048 down cursor: 968 mean of: 80 lines , 2560 datapoints
wavelength(nm)	intensity[arb. units]
585.996	1718.075
586.124	1702.412
586.252	1718.638
586.380	1718.175
586.508	1741.412
586.637	1735.775
586.765	1733.475
586.893	1764.200
587.021	1771.312
587.149	1773.487
587.277	1783.200
587.405	1800.112
587.533	1783.662
587.662	1811.412
587.790	1825.487
587.918	1813.362
588.046	1823.075
588.174	1817.638
588.302	1840.850
588.430	1828.650
588.558	1855.062
588.687	1851.725
588.815	1879.800
588.943	1869.912
589.071	1877.475
589.199	1899.250
589.327	1876.050
589.455	1882.763
589.583	1906.412
589.712	1919.725
589.840	1914.500
589.968	1904.950
590.096	1930.388
590.224	1945.412
590.352	1945.775
590.480	1950.838
590.608	1971.513
590.737	1954.437
590.865	1973.037
590.993	1968.500
591.121	1991.775
591.249	1999.037
591.377	1991.562
591.505	2006.388
591.633	2021.088
591.762	2021.975
591.890	2039.925
592.018	2050.050
592.146	2064.825
592.274	2074.812
592.402	2084.525
592.530	2074.700
592.658	2113.287
592.787	2108.988
592.915	2098.988
593.043	2128.562
593.171	2138.363
593.299	2173.238
593.427	2150.575
593.555	2173.887
593.683	2180.400
593.812	2193.713
593.940	2220.700
594.068	2217.225
594.196	2257.075
594.324	2235.125
594.452	2267.425
594.580	2280.375
594.708	2275.675
594.837	2299.088
594.965	2317.963
595.093	2326.937
595.221	2334.863
595.349	2387.125
595.477	2345.838
595.605	2370.875
595.733	2406.175
595.862	2446.187
595.990	2402.525
596.118	2419.050
596.246	2470.800
596.374	2472.450
596.502	2453.575
596.630	2485.150
596.758	2479.937
596.887	2506.150
597.015	2519.912
597.143	2481.912
597.271	2512.662
597.399	2522.775
597.527	2538.750
597.655	2564.175
597.783	2547.750
597.912	2570.037
598.040	2591.363
598.168	2633.425
598.296	2570.687
598.424	2616.463
598.552	2632.762
598.680	2603.838
598.808	2714.825
598.937	2649.525
599.065	2657.075
599.193	2730.175
599.321	2743.137
599.449	2655.850
599.577	2665.825
599.705	2757.887
599.833	2684.537
599.962	2698.125
600.090	2763.363
600.218	2757.988
600.346	2819.787
600.474	2729.150
600.602	2746.325
600.730	2773.925
600.858	2762.213
600.987	2958.575
601.115	2795.863
601.243	2834.850
601.371	2831.550
601.499	2827.187
601.627	2871.050
601.755	2859.537
601.883	2917.775
602.012	2907.550
602.140	2879.875
602.268	3036.025
602.396	2950.662
602.524	2978.113
602.652	2982.250
602.780	3013.262
602.908	3046.325
603.037	3107.275
603.165	3090.037
603.293	3099.400
603.421	3120.700
603.549	3145.800
603.677	3212.150
603.805	3169.375
603.933	3235.275
604.062	3313.075
604.190	3278.650
604.318	3289.213
604.446	3287.125
604.574	3342.550
604.702	3358.050
604.830	3371.812
604.958	3389.950
605.087	3436.012
605.215	3458.925
605.343	3433.187
605.471	3529.400
605.599	3520.975
605.727	3533.137
605.855	3556.900
605.983	3566.338
606.112	3574.775
606.240	3629.137
606.368	3646.387
606.496	3819.988
606.624	3673.012
606.752	3740.975
606.880	3861.363
607.008	3951.625
607.137	3914.287
607.265	3770.100
607.393	3828.588
607.521	3918.437
607.649	3829.900
607.777	3890.662
607.905	3925.162
608.033	3952.037
608.162	3890.387
608.290	3980.950
608.418	3932.925
608.546	4011.562
608.674	4040.725
608.802	3976.863
608.930	4000.675
609.058	4016.800
609.187	4069.900
609.315	4091.738
609.443	4050.187
609.571	4164.100
609.699	4088.350
609.827	4130.238
609.955	4159.462
610.083	4137.750
610.212	4157.650
610.340	4171.525
610.468	4289.687
610.596	4265.913
610.724	4300.050
610.852	4250.025
610.980	4295.650
611.108	4369.500
611.237	4283.600
611.365	4320.663
611.493	4315.450
611.621	4356.187
611.749	4376.475
611.877	4436.275
612.005	4435.937
612.133	4491.788
612.262	4460.525
612.390	4476.863
612.518	4522.762
612.646	4638.475
612.774	4556.575
612.902	4558.675
613.030	4610.312
613.158	4718.700
613.287	4704.113
613.415	4669.913
613.543	4678.437
613.671	4711.850
613.799	4817.775
613.927	4811.900
614.055	4792.038
614.183	4950.387
614.312	4820.250
614.440	4996.962
614.568	4902.437
614.696	4933.613
614.824	5129.600
614.952	5026.137
615.080	5022.400
615.208	5055.075
615.337	5075.800
615.465	5089.000
615.593	5132.738
615.721	5206.250
615.849	5240.275
615.977	5239.725
616.105	5318.837
616.233	5278.113
616.362	5358.500
616.490	5303.050
616.618	5341.825
616.746	5451.800
616.874	5484.363
617.002	5433.100
617.130	5515.025
617.258	5663.663
617.387	5560.988
617.515	5545.512
617.643	5569.613
617.771	5662.700
617.899	5683.375
618.027	5640.812
618.155	5785.413
618.283	5674.312
618.412	5735.312
618.540	5817.587
618.668	5795.587
618.796	5802.262
618.924	5908.550
619.052	5831.038
619.180	5819.288
619.308	5892.300
619.437	5907.137
619.565	5915.800
619.693	5920.012
619.821	5954.788
619.949	5941.175
620.077	6018.950
620.205	6002.825
620.333	6028.700
620.462	6084.437
620.590	6143.262
620.718	6062.312
620.846	6203.738
620.974	6188.250
621.102	6160.825
621.230	6150.150
621.358	6281.837
621.487	6204.738
621.615	6215.750
621.743	6277.637
621.871	6264.400
621.999	6329.250
622.127	6286.125
622.255	6352.988
622.383	6353.363
622.512	6365.512
622.640	6529.913
622.768	6365.500
622.896	6379.375
623.024	6415.413
623.152	6534.062
623.280	6517.363
623.408	6458.962
623.537	6497.325
623.665	6497.262
623.793	6566.250
623.921	6567.512
624.049	6586.525
624.177	6599.163
624.305	6661.312
624.433	6628.712
624.562	6675.550
624.690	6699.500
624.818	6731.512
624.946	6905.363
625.074	6779.387
625.202	6759.462
625.330	6742.212
625.458	6848.000
625.587	6817.625
625.715	6882.113
625.843	6970.725
625.971	6889.113
626.099	6887.375
626.227	6867.650
626.355	6882.712
626.483	6999.437
626.612	6868.150
626.740	6918.475
626.868	6985.300
626.996	6961.387
627.124	6992.200
627.252	7004.350
627.380	7044.437
627.508	7047.050
627.637	7004.988
627.765	7052.175
627.893	7089.050
628.021	7093.212
628.149	7139.687
628.277	7149.187
628.405	7216.400
628.533	7159.038
628.662	7218.275
628.790	7164.387
628.918	7206.837
629.046	7197.150
629.174	7224.300
629.302	7358.962
629.430	7240.488
629.558	7309.488
629.687	7309.775
629.815	7355.437
629.943	7389.075
630.071	7401.712
630.199	7423.700
630.327	7428.562
630.455	7408.312
630.583	7505.337
630.712	7476.975
630.840	7475.700
630.968	7541.550
631.096	7485.262
631.224	7507.288
631.352	7537.625
631.480	7590.512
631.608	7587.812
631.737	7693.613
631.865	7784.275
631.993	7629.625
632.121	7744.962
632.249	7726.663
632.377	7700.587
632.505	7758.775
632.633	7640.038
632.762	7752.650
632.890	7859.000
633.018	7703.750
633.146	7802.175
633.274	7808.975
633.402	7790.800
633.530	7749.988
633.658	7906.413
633.787	7725.975
633.915	7850.687
634.043	7798.025
634.171	7786.637
634.299	7837.125
634.427	7877.988
634.555	7809.850
634.683	7778.137
634.812	7786.025
634.940	7782.437
635.068	7759.850
635.196	7807.075
635.324	7808.337
635.452	7852.413
635.580	7754.687
635.708	7723.900
635.837	7814.113
635.965	7770.925
636.093	7722.600
636.221	7705.488
636.349	7775.038
636.477	7659.725
636.605	7832.850
636.733	7606.475
636.862	7632.625
636.990	7617.712
637.118	7693.712
637.246	7679.600
637.374	7600.488
637.502	7571.025
637.630	7540.425
637.758	7579.262
637.887	7520.100
638.015	7536.375
638.143	7515.887
638.271	7524.238
638.399	7481.163
638.527	7491.350
638.655	7421.337
638.783	7619.275
638.912	7453.637
639.040	7427.600
639.168	7481.375
639.296	7418.363
639.424	7536.038
639.552	7402.050
639.680	7404.462
639.808	7420.262
639.937	7364.038
640.065	7357.587
640.193	7440.312
640.321	7345.113
640.449	7400.812
640.577	7467.488
640.705	7355.750
640.833	7462.900
640.962	7310.062
641.090	7316.062
641.218	7279.225
641.346	7308.825
641.474	7338.225
641.602	7292.075
641.730	7256.850
641.858	7269.387
641.987	7300.200
642.115	7247.725
642.243	7286.450
642.371	7267.413
642.499	7247.613
642.627	7270.262
642.755	7309.950
642.883	7301.975
643.012	7266.000
643.140	7217.788
643.268	7220.725
643.396	7237.788
643.524	7341.962
643.652	7194.750
643.780	7212.163
643.908	7207.538
644.037	7327.337
644.165	7169.300
644.293	7187.925
644.421	7164.125
644.549	7235.488
644.677	7156.375
644.805	7156.750
644.933	7080.887
645.062	7110.163
645.190	7102.687
645.318	7190.012
645.446	7105.288
645.574	7091.550
645.702	7034.762
645.830	7229.500
645.958	7026.975
646.087	7215.825
646.215	7001.025
646.343	7190.625
646.471	7020.225
646.599	7039.675
646.727	6947.337
646.855	6977.062
646.983	6964.200
647.112	6918.700
647.240	7045.575
647.368	6888.750
647.496	6944.200
647.624	6824.637
647.752	6853.637
647.880	6827.087
648.008	6802.150
648.137	6784.187
648.265	6750.150
648.393	6736.125
648.521	6721.738
648.649	6740.275
648.777	6734.087
648.905	6648.825
649.033	6636.800
649.162	6627.875
649.290	6605.125
649.418	6590.212
649.546	6602.525
649.674	6614.425
649.802	6504.350
649.930	6624.825
650.058	6439.812
650.187	6427.488
650.315	6381.650
650.443	6437.300
650.571	6311.812
650.699	6312.462
650.827	6283.875
650.955	6275.587
651.083	6256.975
651.212	6302.525
651.340	6286.413
651.468	6184.975
651.596	6144.663
651.724	6105.512
651.852	6103.413
651.980	6050.038
652.108	6129.687
652.237	6043.363
652.365	6090.637
652.493	5961.613
652.621	5938.425
652.749	5992.187
652.877	5882.875
653.005	5888.913
653.133	5840.875
653.262	5880.300
653.390	5781.113
653.518	5891.475
653.646	5759.600
653.774	5912.050
653.902	5739.225
654.030	5654.375
654.158	5660.125
654.287	5629.837
654.415	5661.750
654.543	5605.225
654.671	5625.525
654.799	5576.175
654.927	5474.488
655.055	5506.212
655.183	5481.187
655.312	5453.837
655.440	5456.288
655.568	5387.488
655.696	5457.900
655.824	5472.200
655.952	5343.125
656.080	5283.700
656.208	5438.725
656.337	5260.738
656.465	5277.012
656.593	5276.150
656.721	5220.100
656.849	5266.312
656.977	5170.925
657.105	5167.687
657.233	5117.538
657.362	5073.538
657.490	5058.475
657.618	5056.812
657.746	5040.262
657.874	4996.750
658.002	4973.050
658.130	4945.425
658.258	4914.937
658.387	4915.575
658.515	4864.800
658.643	4926.113
658.771	4834.825
658.899	4855.675
659.027	4816.613
659.155	4813.012
659.283	4940.875
659.412	4782.012
659.540	4852.025
659.668	4683.275
659.796	4712.575
659.924	4755.488
660.052	4633.488
660.180	4639.625
660.308	4630.238
660.437	4599.387
660.565	4556.762
660.693	4526.762
660.821	4522.225
660.949	4509.262
661.077	4475.387
661.205	4464.350
661.333	4417.875
661.462	4536.500
661.590	4434.212
661.718	4583.413
661.846	4467.087
661.974	4528.875
662.102	4354.800
662.230	4368.450
662.358	4313.113
662.487	4301.175
662.615	4257.050
662.743	4230.800
662.871	4235.475
662.999	4211.413
663.127	4185.762
663.255	4279.687
663.383	4272.775
663.512	4127.300
663.640	4147.200
663.768	4095.387
663.896	4108.562
664.024	4132.562
664.152	4066.463
664.280	4083.800
664.408	4038.012
664.537	4076.700
664.665	3945.250
664.793	3926.600
664.921	3927.075
665.049	3940.838
665.177	3913.775
665.305	3933.550
665.433	3885.925
665.562	3831.262
665.690	3861.325
665.818	4011.750
665.946	3825.450
666.074	3781.838
666.202	3772.187
666.330	3791.088
666.458	3748.275
666.587	3687.525
666.715	3730.062
666.843	3657.338
666.971	3644.700
667.099	3677.512
667.227	3614.975
667.355	3623.400
667.483	3585.363
667.612	3598.575
667.740	3591.850
667.868	3619.100
667.996	3552.650
668.124	3481.475
668.252	3475.375
668.380	3479.125
668.508	3471.250
668.637	3447.725
668.765	3402.537
668.893	3457.175
669.021	3380.150
669.149	3439.725
669.277	3416.675
669.405	3337.400
669.533	3334.150
669.662	3552.025
669.790	3300.425
669.918	3366.537
670.046	3265.637
670.174	3325.963
670.302	3302.713
670.430	3240.037
670.558	3263.825
670.687	3172.675
670.815	3335.363
670.943	3144.838
671.071	3126.137
671.199	3160.062
671.327	3084.037
671.455	3089.425
671.583	3060.012
671.712	3215.562
671.840	3072.937
671.968	3012.400
672.096	3018.725
672.224	2954.975
672.352	3159.537
672.480	2981.225
672.608	2915.650
672.737	2906.875
672.865	3110.025
672.993	2900.200
673.121	2856.213
673.249	2856.187
673.377	2821.838
673.505	2812.325
673.633	2804.800
673.762	2763.937
673.890	2760.575
674.018	2954.250
674.146	2742.488
674.274	2741.425
674.402	2891.488
674.530	2706.812
674.658	2714.113
674.787	2652.262
674.915	2631.937
675.043	2688.625
675.171	2661.613
675.299	2621.488
675.427	2635.700
675.555	2573.675
675.683	2576.762
675.812	2581.925
675.940	2579.463
676.068	2587.175
676.196	2530.400
676.324	2525.137
676.452	2513.600
676.580	2496.963
676.708	2516.525
676.837	2536.250
676.965	2460.262
677.093	2466.687
677.221	2433.825
677.349	2444.450
677.477	2447.975
677.605	2403.562
677.733	2431.012
677.862	2384.037
677.990	2371.113
678.118	2367.850
678.246	2352.175
678.374	2327.537
678.502	2323.512
678.630	2298.925
678.758	2285.125
678.887	2283.912
679.015	2283.262
679.143	2257.225
679.271	2243.613
679.399	2242.850
679.527	2220.463
679.655	2198.187
679.783	2211.637
679.912	2182.912
680.040	2190.988
680.168	2177.075
680.296	2144.950
680.424	2138.387
680.552	2126.588
680.680	2129.625
680.808	2102.887
680.937	2101.738
681.065	2095.062
681.193	2066.287
681.321	2080.500
681.449	2076.613
681.577	2053.550
681.705	2020.437
681.833	2018.763
681.962	2004.925
682.090	2015.000
682.218	1993.850
682.346	1991.537
682.474	1985.275
682.602	1991.513
682.730	1960.975
682.858	1933.325
682.987	1943.350
683.115	1935.100
683.243	1899.138
683.371	1907.500
683.499	1886.250
683.627	1916.175
683.755	1871.400
683.883	1872.812
684.012	1862.687
684.140	1844.487
684.268	1840.437
684.396	1835.487
684.524	1836.362
684.652	1836.037
684.780	1823.650
684.908	1792.237
685.037	1794.575
685.165	1798.862
685.293	1794.175
685.421	1784.112
685.549	1746.875
685.677	1774.650
685.805	1737.388
685.933	1754.638
686.062	1710.312
686.190	1729.850
686.318	1719.600
686.446	1706.862
686.574	1689.888
686.702	1706.350
686.830	1687.375
686.958	1672.838
687.087	1690.250
687.215	1658.225
687.343	1640.000
687.471	1646.787
687.599	1617.550
687.727	1634.138
687.855	1628.250
687.983	1618.225
688.112	1617.987
688.240	1590.875
688.368	1597.662
688.496	1591.612
688.624	1570.050
688.752	1569.525
688.880	1563.213
689.008	1543.562
689.137	1555.425
689.265	1531.625
689.393	1521.263
689.521	1536.150
689.649	1524.375
689.777	1512.862
689.905	1506.075
690.033	1502.138
690.162	1487.388
690.290	1474.487
690.418	1479.825
690.546	1483.912
690.674	1473.875
690.802	1467.862
690.930	1449.912
691.058	1430.937
691.187	1425.975
691.315	1428.987
691.443	1418.537
691.571	1420.075
691.699	1390.687
691.827	1400.600
691.955	1393.062
692.083	1382.850
692.212	1373.937
692.340	1359.350
692.468	1360.638
692.596	1344.112
692.724	1351.750
692.852	1338.775
692.980	1339.925
693.108	1325.487
693.237	1316.925
693.365	1315.175
693.493	1299.112
693.621	1281.775
693.749	1284.200
693.877	1271.700
694.005	1263.775
694.133	1266.463
694.262	1274.437
694.390	1260.838
694.518	1232.687
694.646	1242.250
694.774	1237.075
694.902	1208.550
695.030	1235.300
695.158	1205.687
695.287	1210.687
695.415	1205.987
695.543	1194.013
695.671	1195.800
695.799	1171.150
695.927	1171.388
696.055	1167.187
696.183	1179.412
696.312	1164.737
696.440	1139.537
696.568	1151.425
696.696	1134.287
696.824	1123.463
696.952	1130.625
697.080	1127.812
697.208	1127.687
697.337	1104.338
697.465	1097.725
697.593	1092.825
697.721	1092.600
697.849	1084.888
697.977	1081.325
698.105	1083.588
698.233	1077.700
698.362	1059.513
698.490	1062.162
698.618	1062.525
698.746	1038.713
698.874	1054.425
699.002	1047.713
699.130	1040.437
699.258	1046.987
699.387	1015.300
699.515	1019.400
699.643	1030.537
699.771	1014.025
699.899	1007.700
700.027	1008.325
700.155	993.687
700.283	999.250
700.412	987.913
700.540	978.175
700.668	967.212
700.796	970.737
700.924	960.937
701.052	961.575
701.180	951.375
701.308	949.150
701.437	938.712
701.565	941.475
701.693	938.150
701.821	938.725
701.949	936.612
702.077	914.650
702.205	921.125
702.333	913.737
702.462	910.087
702.590	893.987
702.718	901.475
702.846	894.000
702.974	892.962
703.102	885.388
703.230	882.250
703.358	873.388
703.487	871.062
703.615	875.350
703.743	859.025
703.871	862.500
703.999	845.025
704.127	841.112
704.255	839.350
704.383	849.050
704.512	838.025
704.640	829.788
704.768	814.962
704.896	820.950
705.024	811.050
705.152	819.163
705.280	807.175
705.408	795.275
705.537	811.575
705.665	802.175
705.793	795.700
705.921	786.375
706.049	795.750
706.177	779.700
706.305	778.725
706.433	771.225
706.562	770.625
706.690	765.175
706.818	757.100
706.946	763.400
707.074	755.788
707.202	747.212
707.330	750.525
707.458	754.712
707.587	737.837
707.715	740.013
707.843	721.550
707.971	737.325
708.099	730.538
708.227	715.975
708.355	716.575
708.483	709.288
708.612	713.288
708.740	705.337
708.868	704.600
708.996	707.788
709.124	710.100
709.252	694.425
709.380	687.087
709.508	679.350
709.637	680.288
709.765	682.013
709.893	673.888
710.021	669.725
710.149	667.525
710.277	671.425
710.405	667.800
710.533	655.138
710.662	664.100
710.790	665.375
710.918	656.263
711.046	643.862
711.174	650.625
711.302	646.812
711.430	646.800
711.558	643.225
711.687	639.975
711.815	627.500
711.943	632.237
712.071	625.437
712.199	618.712
712.327	618.138
712.455	616.837
712.583	619.975
712.712	627.600
712.840	616.788
712.968	601.687
713.096	607.612
713.224	593.225
713.352	603.388
713.480	591.625
713.608	588.587
713.737	586.375
713.865	586.862
713.993	572.225
714.121	573.675
714.249	582.650
714.377	572.163
714.505	581.312
714.633	567.337
714.762	561.987
714.890	567.763
715.018	574.550
715.146	554.250
715.274	555.562
715.402	555.650
715.530	556.312
715.658	547.962
715.787	554.687
715.915	547.638
716.043	535.850
716.171	549.763
716.299	555.212
716.427	536.125
716.555	538.937
716.683	538.112
716.812	531.675
716.940	533.937
717.068	519.888
717.196	523.663
717.324	520.125
717.452	518.125
717.580	515.900
717.708	515.400
717.837	519.462
717.965	512.900
718.093	507.650
718.221	502.613
718.349	502.225
718.477	501.837
718.605	493.937
718.733	506.450
718.862	495.550
718.990	490.875
719.118	495.038
719.246	490.663
719.374	484.962
719.502	486.363
719.630	489.587
719.758	482.300
719.887	474.750
720.015	477.500
720.143	480.375
720.271	466.675
720.399	478.250
720.527	476.038
720.655	459.600
720.783	461.750
720.912	473.363
721.040	473.937
721.168	452.350
721.296	468.012
721.424	456.288
721.552	451.788
721.680	453.512
721.808	456.450
721.937	449.312
722.065	445.937
722.193	440.750
722.321	446.187
722.449	440.687
722.577	441.562
722.705	431.725
722.833	444.613
722.962	443.125
723.090	426.275
723.218	423.363
723.346	427.062
723.474	427.712
723.602	428.450
723.730	419.837
723.858	427.812
723.987	423.575
724.115	417.538
724.243	417.925
724.371	413.575
724.499	413.113
724.627	411.225
724.755	410.800
724.883	408.637
725.012	408.062
725.140	403.163
725.268	407.712
725.396	399.150
725.524	393.387
725.652	395.475
725.780	396.725
725.908	398.750
726.037	388.450
726.165	385.163
726.293	383.337
726.421	384.663
726.549	386.250
726.677	383.075
726.805	378.288
726.933	381.187
727.062	374.825
727.190	371.762
727.318	370.025
727.446	372.425
727.574	377.387
727.702	373.950
727.830	363.175
727.958	379.875
728.087	362.450
728.215	360.488
728.343	363.087
728.471	368.700
728.599	355.363
728.727	362.988
728.855	364.238
728.983	353.425
729.112	356.175
729.240	358.925
729.368	354.937
729.496	356.637
729.624	351.788
729.752	348.312
729.880	349.663
730.008	349.637
730.137	343.262
730.265	342.775
730.393	339.900
730.521	337.488
730.649	346.462
730.777	342.538
730.905	336.288
731.033	336.775
731.162	335.137
731.290	337.775
731.418	333.538
731.546	353.937
731.674	333.325
731.802	326.175
731.930	328.387
732.058	329.812
732.187	328.325
732.315	319.738
732.443	327.250
732.571	325.050
732.699	322.000
732.827	326.300
732.955	319.450
733.083	314.000
733.212	318.187
733.340	318.212
733.468	315.525
733.596	310.175
733.724	309.587
733.852	311.413
733.980	313.062
734.108	321.225
734.237	311.887
734.365	301.825
734.493	312.687
734.621	304.925
734.749	307.225
734.877	307.075
735.005	299.800
735.133	303.175
735.262	301.800
735.390	301.462
735.518	303.650
735.646	298.988
735.774	291.025
735.902	295.238
736.030	292.100
736.158	300.788
736.287	297.800
736.415	296.812
736.543	290.250
736.671	288.200
736.799	287.488
736.927	302.887
737.055	293.113
737.183	284.637
