sample12_PS_at_750.00nm_cut_at_1008.00Y_01.dat
15.05.2023
11:10:06
cut middle at Y: 1008.00
top cursor: 1048 down cursor: 968 mean of: 80 lines , 2560 datapoints
wavelength(nm)	intensity[arb. units]
585.996	995.775
586.124	974.687
586.252	965.875
586.380	954.950
586.508	966.687
586.637	968.513
586.765	960.525
586.893	964.712
587.021	966.650
587.149	982.125
587.277	976.100
587.405	975.587
587.533	975.825
587.662	977.075
587.790	984.875
587.918	981.163
588.046	982.900
588.174	977.888
588.302	988.263
588.430	992.562
588.558	989.212
588.687	980.725
588.815	999.462
588.943	978.212
589.071	987.350
589.199	990.575
589.327	989.300
589.455	971.975
589.583	986.862
589.712	996.950
589.840	984.300
589.968	980.275
590.096	974.700
590.224	991.625
590.352	988.050
590.480	981.050
590.608	981.650
590.737	978.800
590.865	992.163
590.993	985.800
591.121	985.687
591.249	999.962
591.377	981.750
591.505	986.437
591.633	987.875
591.762	985.237
591.890	989.725
592.018	990.825
592.146	990.475
592.274	999.675
592.402	987.725
592.530	992.600
592.658	1001.013
592.787	1007.825
592.915	982.812
593.043	993.562
593.171	999.975
593.299	1019.737
593.427	998.638
593.555	1003.312
593.683	1007.587
593.812	1002.462
593.940	1014.725
594.068	1005.825
594.196	1028.675
594.324	1014.775
594.452	1019.337
594.580	1026.225
594.708	1016.650
594.837	1016.200
594.965	1037.062
595.093	1031.287
595.221	1023.200
595.349	1036.525
595.477	1034.175
595.605	1032.513
595.733	1056.888
595.862	1037.838
595.990	1036.800
596.118	1051.638
596.246	1042.987
596.374	1061.487
596.502	1076.362
596.630	1072.175
596.758	1058.050
596.887	1069.125
597.015	1073.888
597.143	1061.713
597.271	1057.662
597.399	1076.775
597.527	1077.062
597.655	1081.175
597.783	1081.100
597.912	1065.138
598.040	1071.300
598.168	1067.487
598.296	1071.075
598.424	1075.625
598.552	1075.825
598.680	1065.625
598.808	1065.463
598.937	1078.588
599.065	1070.350
599.193	1063.675
599.321	1064.763
599.449	1083.263
599.577	1074.263
599.705	1075.612
599.833	1068.862
599.962	1067.350
600.090	1070.825
600.218	1059.338
600.346	1068.362
600.474	1086.275
600.602	1074.475
600.730	1071.638
600.858	1089.037
600.987	1078.225
601.115	1076.388
601.243	1073.275
601.371	1077.713
601.499	1093.162
601.627	1091.662
601.755	1097.700
601.883	1091.250
602.012	1098.575
602.140	1089.675
602.268	1091.625
602.396	1106.300
602.524	1100.575
602.652	1116.812
602.780	1115.838
602.908	1123.175
603.037	1131.162
603.165	1129.950
603.293	1126.275
603.421	1142.162
603.549	1123.600
603.677	1154.750
603.805	1143.963
603.933	1151.737
604.062	1140.400
604.190	1161.100
604.318	1154.500
604.446	1174.775
604.574	1175.425
604.702	1173.612
604.830	1175.925
604.958	1183.175
605.087	1200.237
605.215	1197.088
605.343	1202.800
605.471	1199.025
605.599	1208.812
605.727	1207.062
605.855	1232.213
605.983	1204.687
606.112	1216.450
606.240	1219.100
606.368	1233.775
606.496	1241.925
606.624	1231.400
606.752	1236.487
606.880	1238.112
607.008	1249.062
607.137	1249.638
607.265	1255.287
607.393	1268.713
607.521	1265.375
607.649	1257.987
607.777	1268.200
607.905	1264.412
608.033	1273.475
608.162	1269.487
608.290	1261.975
608.418	1278.213
608.546	1282.088
608.674	1286.437
608.802	1270.388
608.930	1284.187
609.058	1280.425
609.187	1281.737
609.315	1272.187
609.443	1286.500
609.571	1290.825
609.699	1287.500
609.827	1293.287
609.955	1276.638
610.083	1286.375
610.212	1292.612
610.340	1292.513
610.468	1294.275
610.596	1295.763
610.724	1289.987
610.852	1317.050
610.980	1290.200
611.108	1298.725
611.237	1293.250
611.365	1314.500
611.493	1297.237
611.621	1338.312
611.749	1326.812
611.877	1331.450
612.005	1320.138
612.133	1308.737
612.262	1318.700
612.390	1337.625
612.518	1333.700
612.646	1327.050
612.774	1337.362
612.902	1344.787
613.030	1340.638
613.158	1349.900
613.287	1386.400
613.415	1362.662
613.543	1349.900
613.671	1356.713
613.799	1378.362
613.927	1370.687
614.055	1364.825
614.183	1382.963
614.312	1371.287
614.440	1383.588
614.568	1383.787
614.696	1405.850
614.824	1387.575
614.952	1398.600
615.080	1421.675
615.208	1419.175
615.337	1427.825
615.465	1427.300
615.593	1451.225
615.721	1443.725
615.849	1443.375
615.977	1461.525
616.105	1446.175
616.233	1472.787
616.362	1461.463
616.490	1469.513
616.618	1467.050
616.746	1474.050
616.874	1488.325
617.002	1500.562
617.130	1506.187
617.258	1502.513
617.387	1507.088
617.515	1506.013
617.643	1510.312
617.771	1522.138
617.899	1517.350
618.027	1524.912
618.155	1525.463
618.283	1526.388
618.412	1537.963
618.540	1541.463
618.668	1541.737
618.796	1536.900
618.924	1557.050
619.052	1560.550
619.180	1559.550
619.308	1556.937
619.437	1568.362
619.565	1577.650
619.693	1559.787
619.821	1589.162
619.949	1563.700
620.077	1569.763
620.205	1593.187
620.333	1589.400
620.462	1599.150
620.590	1611.338
620.718	1593.475
620.846	1601.638
620.974	1642.550
621.102	1602.463
621.230	1611.787
621.358	1632.800
621.487	1612.850
621.615	1633.650
621.743	1653.150
621.871	1628.362
621.999	1615.537
622.127	1642.525
622.255	1635.213
622.383	1637.850
622.512	1656.250
622.640	1642.213
622.768	1664.562
622.896	1629.700
623.024	1640.775
623.152	1680.225
623.280	1654.225
623.408	1663.713
623.537	1675.625
623.665	1676.912
623.793	1678.200
623.921	1666.400
624.049	1680.525
624.177	1693.100
624.305	1676.838
624.433	1691.475
624.562	1692.588
624.690	1685.425
624.818	1695.825
624.946	1710.562
625.074	1714.800
625.202	1714.875
625.330	1705.325
625.458	1720.625
625.587	1724.062
625.715	1726.463
625.843	1723.600
625.971	1731.513
626.099	1743.912
626.227	1745.350
626.355	1733.725
626.483	1757.075
626.612	1751.812
626.740	1753.325
626.868	1780.213
626.996	1757.412
627.124	1758.987
627.252	1747.013
627.380	1782.112
627.508	1776.612
627.637	1768.638
627.765	1779.500
627.893	1809.475
628.021	1804.600
628.149	1832.138
628.277	1846.625
628.405	1836.862
628.533	1814.662
628.662	1807.112
628.790	1839.112
628.918	1827.963
629.046	1841.275
629.174	1840.737
629.302	1856.325
629.430	1860.638
629.558	1860.475
629.687	1869.763
629.815	1876.675
629.943	1883.437
630.071	1885.525
630.199	1897.562
630.327	1894.513
630.455	1902.237
630.583	1919.175
630.712	1924.600
630.840	1920.950
630.968	1964.950
631.096	1947.912
631.224	1941.275
631.352	1966.550
631.480	1962.275
631.608	1965.100
631.737	1968.812
631.865	1991.725
631.993	1973.412
632.121	1989.838
632.249	1993.675
632.377	2015.775
632.505	1996.975
632.633	2013.475
632.762	2037.812
632.890	2039.763
633.018	2033.187
633.146	2055.550
633.274	2062.275
633.402	2042.650
633.530	2055.475
633.658	2069.463
633.787	2049.963
633.915	2070.550
634.043	2068.750
634.171	2081.950
634.299	2097.050
634.427	2086.175
634.555	2089.613
634.683	2088.825
634.812	2079.463
634.940	2115.025
635.068	2088.800
635.196	2106.125
635.324	2136.500
635.452	2154.025
635.580	2122.488
635.708	2113.463
635.837	2123.650
635.965	2128.512
636.093	2144.287
636.221	2126.975
636.349	2156.150
636.477	2142.262
636.605	2176.625
636.733	2143.725
636.862	2142.387
636.990	2125.887
637.118	2161.875
637.246	2151.775
637.374	2139.588
637.502	2139.075
637.630	2171.725
637.758	2152.637
637.887	2159.450
638.015	2158.838
638.143	2185.975
638.271	2167.825
638.399	2158.562
638.527	2161.412
638.655	2166.075
638.783	2214.925
638.912	2179.000
639.040	2171.588
639.168	2181.750
639.296	2191.812
639.424	2202.925
639.552	2201.787
639.680	2225.412
639.808	2206.425
639.937	2192.262
640.065	2184.425
640.193	2216.100
640.321	2199.825
640.449	2233.150
640.577	2232.725
640.705	2196.800
640.833	2221.050
640.962	2226.625
641.090	2232.850
641.218	2232.150
641.346	2234.375
641.474	2235.150
641.602	2234.375
641.730	2270.213
641.858	2264.450
641.987	2270.200
642.115	2269.088
642.243	2278.187
642.371	2291.175
642.499	2279.550
642.627	2284.400
642.755	2300.300
642.883	2319.738
643.012	2306.937
643.140	2324.625
643.268	2321.312
643.396	2325.850
643.524	2357.012
643.652	2334.125
643.780	2348.625
643.908	2346.450
644.037	2365.000
644.165	2338.300
644.293	2352.050
644.421	2357.562
644.549	2378.463
644.677	2387.125
644.805	2393.425
644.933	2366.137
645.062	2394.200
645.190	2381.963
645.318	2392.075
645.446	2424.975
645.574	2434.762
645.702	2414.887
645.830	2484.675
645.958	2433.062
646.087	2473.675
646.215	2428.500
646.343	2510.713
646.471	2462.350
646.599	2463.950
646.727	2447.812
646.855	2465.812
646.983	2486.900
647.112	2471.463
647.240	2533.775
647.368	2479.450
647.496	2504.275
647.624	2460.850
647.752	2494.000
647.880	2491.950
648.008	2490.150
648.137	2480.863
648.265	2485.238
648.393	2495.062
648.521	2526.875
648.649	2507.687
648.777	2495.325
648.905	2506.475
649.033	2487.088
649.162	2505.175
649.290	2517.012
649.418	2515.863
649.546	2517.312
649.674	2536.075
649.802	2529.488
649.930	2591.437
650.058	2530.037
650.187	2549.387
650.315	2513.350
650.443	2548.863
650.571	2547.250
650.699	2535.363
650.827	2542.338
650.955	2535.075
651.083	2538.437
651.212	2568.800
651.340	2571.937
651.468	2545.113
651.596	2546.113
651.724	2541.050
651.852	2549.187
651.980	2507.062
652.108	2604.050
652.237	2533.363
652.365	2583.425
652.493	2535.088
652.621	2529.725
652.749	2582.963
652.877	2530.475
653.005	2558.463
653.133	2557.637
653.262	2560.613
653.390	2540.637
653.518	2591.437
653.646	2553.437
653.774	2647.225
653.902	2579.250
654.030	2548.637
654.158	2549.450
654.287	2550.162
654.415	2577.387
654.543	2571.025
654.671	2602.187
654.799	2559.963
654.927	2569.187
655.055	2543.562
655.183	2571.500
655.312	2551.475
655.440	2581.700
655.568	2564.375
655.696	2609.037
655.824	2639.400
655.952	2574.650
656.080	2559.537
656.208	2663.262
656.337	2570.762
656.465	2593.113
656.593	2605.838
656.721	2581.588
656.849	2630.575
656.977	2583.175
657.105	2596.475
657.233	2560.775
657.362	2576.675
657.490	2578.762
657.618	2583.588
657.746	2589.750
657.874	2572.100
658.002	2563.537
658.130	2592.088
658.258	2582.037
658.387	2585.375
658.515	2557.375
658.643	2607.475
658.771	2576.162
658.899	2588.500
659.027	2585.588
659.155	2592.512
659.283	2688.387
659.412	2589.025
659.540	2649.088
659.668	2578.713
659.796	2608.713
659.924	2651.050
660.052	2595.900
660.180	2607.713
660.308	2610.988
660.437	2617.137
660.565	2590.800
660.693	2590.512
660.821	2595.700
660.949	2593.850
661.077	2586.162
661.205	2614.425
661.333	2566.762
661.462	2672.875
661.590	2635.512
661.718	2697.550
661.846	2660.062
661.974	2689.963
662.102	2601.350
662.230	2624.150
662.358	2599.525
662.487	2593.650
662.615	2594.550
662.743	2589.225
662.871	2608.262
662.999	2580.825
663.127	2561.863
663.255	2669.750
663.383	2651.575
663.512	2595.825
663.640	2616.412
663.768	2593.950
663.896	2609.650
664.024	2641.963
664.152	2602.525
664.280	2632.338
664.408	2627.375
664.537	2658.450
664.665	2580.988
664.793	2579.187
664.921	2574.912
665.049	2620.512
665.177	2622.187
665.305	2601.838
665.433	2612.787
665.562	2597.512
665.690	2611.175
665.818	2693.475
665.946	2609.037
666.074	2600.738
666.202	2573.725
666.330	2620.775
666.458	2606.088
666.587	2564.088
666.715	2597.312
666.843	2571.463
666.971	2575.463
667.099	2599.950
667.227	2587.937
667.355	2605.525
667.483	2589.912
667.612	2616.062
667.740	2605.875
667.868	2647.812
667.996	2606.175
668.124	2584.375
668.252	2578.863
668.380	2573.238
668.508	2595.512
668.637	2594.437
668.765	2587.400
668.893	2608.437
669.021	2566.012
669.149	2600.175
669.277	2608.025
669.405	2564.250
669.533	2583.225
669.662	2721.750
669.790	2556.512
669.918	2621.012
670.046	2577.887
670.174	2609.525
670.302	2605.162
670.430	2582.050
670.558	2618.838
670.687	2571.300
670.815	2648.588
670.943	2525.738
671.071	2566.850
671.199	2584.062
671.327	2550.338
671.455	2558.137
671.583	2546.338
671.712	2623.375
671.840	2535.725
671.968	2521.925
672.096	2532.937
672.224	2527.475
672.352	2593.075
672.480	2522.863
672.608	2503.437
672.737	2513.512
672.865	2570.950
672.993	2506.525
673.121	2490.887
673.249	2496.287
673.377	2478.800
673.505	2479.863
673.633	2471.838
673.762	2464.025
673.890	2491.562
674.018	2548.300
674.146	2470.400
674.274	2497.262
674.402	2515.113
674.530	2472.363
674.658	2468.912
674.787	2421.488
674.915	2422.363
675.043	2483.825
675.171	2469.512
675.299	2436.812
675.427	2438.838
675.555	2422.613
675.683	2428.562
675.812	2409.387
675.940	2409.238
676.068	2418.062
676.196	2409.075
676.324	2406.412
676.452	2394.863
676.580	2395.650
676.708	2387.225
676.837	2428.325
676.965	2376.762
677.093	2373.463
677.221	2380.525
677.349	2359.125
677.477	2374.525
677.605	2355.262
677.733	2370.425
677.862	2335.988
677.990	2339.925
678.118	2334.562
678.246	2338.762
678.374	2316.488
678.502	2322.475
678.630	2312.162
678.758	2316.575
678.887	2296.838
679.015	2303.262
679.143	2290.675
679.271	2297.725
679.399	2284.775
679.527	2266.137
679.655	2282.650
679.783	2295.613
679.912	2288.425
680.040	2269.425
680.168	2254.575
680.296	2247.488
680.424	2260.762
680.552	2256.187
680.680	2258.187
680.808	2226.187
680.937	2250.350
681.065	2233.287
681.193	2226.900
681.321	2235.175
681.449	2230.775
681.577	2228.000
681.705	2206.437
681.833	2203.113
681.962	2191.287
682.090	2218.812
682.218	2209.838
682.346	2181.200
682.474	2192.113
682.602	2199.412
682.730	2171.713
682.858	2174.287
682.987	2188.488
683.115	2166.925
683.243	2163.575
683.371	2170.025
683.499	2144.475
683.627	2173.137
683.755	2151.350
683.883	2161.800
684.012	2138.650
684.140	2145.075
684.268	2137.475
684.396	2144.613
684.524	2141.838
684.652	2149.488
684.780	2148.550
684.908	2119.750
685.037	2115.400
685.165	2128.162
685.293	2118.425
685.421	2120.350
685.549	2094.537
685.677	2116.387
685.805	2101.613
685.933	2117.900
686.062	2064.675
686.190	2098.787
686.318	2118.925
686.446	2091.062
686.574	2080.575
686.702	2111.088
686.830	2085.300
686.958	2065.637
687.087	2068.137
687.215	2042.787
687.343	2075.875
687.471	2065.537
687.599	2036.312
687.727	2036.875
687.855	2063.975
687.983	2055.675
688.112	2052.262
688.240	2026.888
688.368	2035.013
688.496	2029.437
688.624	2034.638
688.752	2005.475
688.880	2037.225
689.008	2013.550
689.137	2006.575
689.265	2005.900
689.393	1987.537
689.521	2003.300
689.649	1986.325
689.777	1980.425
689.905	1977.812
690.033	1995.550
690.162	1964.862
690.290	1954.937
690.418	1957.362
690.546	1993.687
690.674	1976.775
690.802	1953.888
690.930	1958.412
691.058	1945.250
691.187	1924.750
691.315	1960.463
691.443	1929.787
691.571	1919.025
691.699	1907.725
691.827	1924.050
691.955	1905.138
692.083	1905.850
692.212	1893.700
692.340	1886.175
692.468	1887.388
692.596	1872.825
692.724	1870.013
692.852	1860.925
692.980	1865.662
693.108	1861.100
693.237	1842.763
693.365	1832.000
693.493	1844.463
693.621	1826.750
693.749	1825.875
693.877	1812.500
694.005	1829.687
694.133	1818.937
694.262	1806.312
694.390	1804.250
694.518	1772.975
694.646	1774.325
694.774	1789.088
694.902	1760.025
695.030	1810.138
695.158	1750.775
695.287	1769.412
695.415	1733.825
695.543	1747.025
695.671	1738.425
695.799	1727.338
695.927	1719.350
696.055	1722.250
696.183	1745.125
696.312	1711.700
696.440	1688.937
696.568	1699.812
696.696	1693.725
696.824	1684.713
696.952	1688.875
697.080	1667.513
697.208	1686.050
697.337	1644.050
697.465	1649.300
697.593	1647.662
697.721	1661.513
697.849	1648.550
697.977	1642.000
698.105	1652.713
698.233	1641.450
698.362	1610.450
698.490	1621.737
698.618	1617.312
698.746	1605.950
698.874	1610.800
699.002	1619.450
699.130	1592.550
699.258	1593.912
699.387	1578.937
699.515	1576.575
699.643	1583.525
699.771	1579.725
699.899	1561.600
700.027	1556.537
700.155	1551.900
700.283	1569.737
700.412	1549.812
700.540	1520.737
700.668	1514.900
700.796	1531.112
700.924	1512.300
701.052	1530.513
701.180	1511.213
701.308	1518.562
701.437	1499.650
701.565	1498.638
701.693	1499.475
701.821	1520.475
701.949	1489.388
702.077	1462.150
702.205	1476.763
702.333	1474.287
702.462	1468.737
702.590	1452.850
702.718	1463.312
702.846	1450.700
702.974	1445.437
703.102	1439.275
703.230	1425.838
703.358	1423.213
703.487	1411.537
703.615	1426.263
703.743	1402.312
703.871	1410.800
703.999	1386.775
704.127	1397.600
704.255	1381.388
704.383	1398.550
704.512	1368.812
704.640	1378.737
704.768	1363.375
704.896	1365.075
705.024	1352.687
705.152	1354.025
705.280	1354.350
705.408	1339.425
705.537	1341.138
705.665	1341.237
705.793	1326.463
705.921	1331.388
706.049	1333.963
706.177	1320.975
706.305	1303.638
706.433	1301.250
706.562	1302.025
706.690	1292.412
706.818	1285.450
706.946	1285.225
707.074	1283.912
707.202	1258.950
707.330	1272.375
707.458	1263.600
707.587	1252.513
707.715	1264.463
707.843	1261.862
707.971	1253.687
708.099	1245.388
708.227	1232.650
708.355	1225.175
708.483	1222.525
708.612	1227.787
708.740	1226.537
708.868	1220.175
708.996	1214.713
709.124	1224.013
709.252	1203.437
709.380	1199.537
709.508	1172.300
709.637	1187.237
709.765	1189.437
709.893	1173.987
710.021	1175.575
710.149	1157.463
710.277	1179.500
710.405	1166.088
710.533	1154.062
710.662	1148.138
710.790	1154.187
710.918	1145.775
711.046	1140.925
711.174	1153.588
711.302	1129.187
711.430	1125.575
711.558	1135.037
711.687	1122.025
711.815	1120.000
711.943	1126.513
712.071	1105.225
712.199	1107.537
712.327	1105.037
712.455	1104.125
712.583	1097.400
712.712	1114.650
712.840	1093.000
712.968	1080.187
713.096	1089.787
713.224	1065.175
713.352	1069.625
713.480	1071.412
713.608	1073.150
713.737	1055.237
713.865	1047.312
713.993	1046.550
714.121	1057.325
714.249	1050.600
714.377	1032.900
714.505	1049.138
714.633	1033.875
714.762	1024.325
714.890	1029.700
715.018	1015.087
715.146	1015.337
715.274	1017.038
715.402	1004.538
715.530	1018.100
715.658	986.312
715.787	1007.788
715.915	999.937
716.043	986.212
716.171	999.163
716.299	1014.700
716.427	994.400
716.555	991.437
716.683	976.600
716.812	969.275
716.940	971.038
717.068	950.737
717.196	966.437
717.324	962.225
717.452	956.900
717.580	948.225
717.708	943.763
717.837	940.812
717.965	947.225
718.093	935.862
718.221	928.587
718.349	925.625
718.477	918.775
718.605	911.575
718.733	924.275
718.862	907.075
718.990	914.375
719.118	908.425
719.246	900.487
719.374	903.362
719.502	901.138
719.630	904.075
719.758	898.250
719.887	887.975
720.015	892.400
720.143	879.737
720.271	879.775
720.399	872.500
720.527	867.400
720.655	861.175
720.783	865.513
720.912	860.362
721.040	862.275
721.168	858.475
721.296	855.187
721.424	849.650
721.552	857.112
721.680	841.050
721.808	844.413
721.937	846.013
722.065	829.487
722.193	820.138
722.321	836.075
722.449	830.087
722.577	824.712
722.705	812.837
722.833	805.875
722.962	808.263
723.090	792.700
723.218	798.388
723.346	793.337
723.474	801.888
723.602	794.800
723.730	788.413
723.858	785.337
723.987	788.962
724.115	766.337
724.243	772.300
724.371	780.312
724.499	780.913
724.627	771.575
724.755	766.075
724.883	775.937
725.012	755.050
725.140	749.962
725.268	757.675
725.396	748.837
725.524	741.100
725.652	749.925
725.780	742.900
725.908	730.050
726.037	733.700
726.165	728.900
726.293	722.087
726.421	715.513
726.549	721.075
726.677	723.612
726.805	718.087
726.933	713.487
727.062	702.388
727.190	699.288
727.318	700.237
727.446	703.187
727.574	710.450
727.702	695.200
727.830	684.450
727.958	696.587
728.087	687.825
728.215	678.125
728.343	680.888
728.471	679.125
728.599	670.837
728.727	675.038
728.855	670.987
728.983	670.150
729.112	666.575
729.240	668.475
729.368	657.400
729.496	654.425
729.624	659.962
729.752	650.538
729.880	650.925
730.008	645.350
730.137	643.500
730.265	649.612
730.393	639.825
730.521	639.575
730.649	643.812
730.777	634.675
730.905	626.663
731.033	626.862
731.162	617.337
731.290	631.400
731.418	620.712
731.546	639.150
731.674	611.212
731.802	598.212
731.930	617.712
732.058	601.937
732.187	621.625
732.315	601.900
732.443	609.175
732.571	593.200
732.699	590.312
732.827	598.812
732.955	585.900
733.083	590.125
733.212	585.250
733.340	584.850
733.468	590.187
733.596	581.187
733.724	572.950
733.852	573.587
733.980	571.450
734.108	583.050
734.237	575.525
734.365	567.275
734.493	566.187
734.621	559.862
734.749	564.800
734.877	557.263
735.005	557.750
735.133	566.737
735.262	558.987
735.390	553.900
735.518	553.962
735.646	542.337
735.774	548.525
735.902	538.700
736.030	547.413
736.158	558.187
736.287	534.875
736.415	537.337
736.543	530.875
736.671	525.075
