sample9_PS_at_750.00nm_cut_at_1008.00Y_01.dat
15.05.2023
11:06:51
cut middle at Y: 1008.00
top cursor: 1048 down cursor: 968 mean of: 80 lines , 2560 datapoints
wavelength(nm)	intensity[arb. units]
585.996	1094.875
586.124	1068.812
586.252	1076.138
586.380	1070.850
586.508	1069.425
586.637	1075.138
586.765	1066.213
586.893	1079.138
587.021	1077.812
587.149	1086.812
587.277	1091.987
587.405	1093.237
587.533	1082.975
587.662	1097.062
587.790	1107.575
587.918	1100.950
588.046	1116.275
588.174	1096.475
588.302	1102.600
588.430	1092.787
588.558	1098.362
588.687	1108.775
588.815	1131.575
588.943	1112.575
589.071	1107.463
589.199	1120.088
589.327	1109.725
589.455	1112.187
589.583	1122.213
589.712	1124.075
589.840	1122.812
589.968	1114.888
590.096	1128.075
590.224	1121.562
590.352	1122.862
590.480	1132.812
590.608	1130.175
590.737	1120.463
590.865	1134.875
590.993	1126.963
591.121	1135.600
591.249	1125.375
591.377	1130.088
591.505	1130.725
591.633	1129.375
591.762	1146.750
591.890	1137.000
592.018	1127.912
592.146	1150.975
592.274	1151.400
592.402	1145.287
592.530	1144.963
592.658	1148.138
592.787	1151.112
592.915	1146.650
593.043	1146.312
593.171	1155.213
593.299	1176.050
593.427	1165.600
593.555	1167.275
593.683	1163.350
593.812	1162.850
593.940	1176.888
594.068	1179.625
594.196	1199.075
594.324	1175.662
594.452	1186.375
594.580	1201.250
594.708	1185.175
594.837	1194.737
594.965	1198.662
595.093	1200.250
595.221	1205.088
595.349	1216.412
595.477	1216.687
595.605	1205.237
595.733	1238.175
595.862	1213.562
595.990	1216.862
596.118	1229.525
596.246	1234.638
596.374	1231.625
596.502	1251.450
596.630	1260.550
596.758	1254.650
596.887	1247.037
597.015	1262.037
597.143	1239.638
597.271	1263.850
597.399	1266.975
597.527	1265.825
597.655	1258.500
597.783	1270.662
597.912	1254.662
598.040	1274.737
598.168	1263.138
598.296	1277.213
598.424	1264.450
598.552	1275.075
598.680	1260.875
598.808	1274.487
598.937	1269.037
599.065	1278.350
599.193	1268.263
599.321	1256.612
599.449	1286.138
599.577	1260.263
599.705	1264.125
599.833	1270.388
599.962	1257.437
600.090	1271.575
600.218	1259.513
600.346	1271.138
600.474	1279.750
600.602	1276.713
600.730	1273.737
600.858	1299.187
600.987	1274.325
601.115	1268.625
601.243	1280.800
601.371	1277.475
601.499	1296.650
601.627	1292.862
601.755	1303.275
601.883	1292.662
602.012	1301.300
602.140	1293.900
602.268	1310.575
602.396	1318.700
602.524	1319.937
602.652	1320.662
602.780	1322.775
602.908	1319.125
603.037	1350.075
603.165	1331.750
603.293	1348.187
603.421	1344.763
603.549	1340.862
603.677	1376.800
603.805	1347.687
603.933	1358.125
604.062	1367.325
604.190	1392.750
604.318	1367.225
604.446	1394.400
604.574	1385.862
604.702	1387.525
604.830	1398.675
604.958	1414.850
605.087	1421.450
605.215	1414.787
605.343	1418.437
605.471	1414.687
605.599	1434.037
605.727	1425.638
605.855	1450.513
605.983	1426.900
606.112	1454.862
606.240	1449.975
606.368	1469.500
606.496	1470.463
606.624	1458.200
606.752	1460.263
606.880	1468.750
607.008	1472.700
607.137	1469.312
607.265	1485.112
607.393	1489.950
607.521	1478.487
607.649	1480.600
607.777	1468.600
607.905	1473.300
608.033	1492.100
608.162	1488.588
608.290	1487.475
608.418	1492.463
608.546	1492.537
608.674	1514.838
608.802	1499.787
608.930	1507.013
609.058	1494.675
609.187	1490.787
609.315	1485.062
609.443	1490.325
609.571	1502.338
609.699	1503.612
609.827	1478.713
609.955	1496.187
610.083	1495.350
610.212	1490.388
610.340	1489.088
610.468	1502.662
610.596	1502.850
610.724	1489.487
610.852	1513.225
610.980	1513.975
611.108	1495.550
611.237	1501.400
611.365	1503.263
611.493	1499.675
611.621	1507.237
611.749	1518.263
611.877	1513.362
612.005	1512.662
612.133	1503.075
612.262	1524.838
612.390	1521.525
612.518	1523.775
612.646	1521.925
612.774	1526.475
612.902	1533.612
613.030	1526.963
613.158	1532.200
613.287	1567.987
613.415	1529.412
613.543	1545.187
613.671	1552.300
613.799	1555.050
613.927	1538.388
614.055	1555.975
614.183	1570.062
614.312	1561.263
614.440	1565.487
614.568	1567.975
614.696	1582.612
614.824	1567.287
614.952	1584.500
615.080	1586.950
615.208	1573.187
615.337	1585.088
615.465	1595.112
615.593	1606.763
615.721	1599.088
615.849	1608.162
615.977	1605.388
616.105	1591.437
616.233	1630.525
616.362	1618.437
616.490	1604.588
616.618	1634.350
616.746	1614.838
616.874	1630.963
617.002	1639.912
617.130	1649.125
617.258	1639.888
617.387	1628.675
617.515	1651.138
617.643	1653.987
617.771	1641.775
617.899	1656.937
618.027	1640.325
618.155	1657.400
618.283	1648.775
618.412	1659.875
618.540	1654.300
618.668	1663.763
618.796	1653.838
618.924	1676.175
619.052	1668.600
619.180	1672.138
619.308	1668.338
619.437	1668.850
619.565	1666.825
619.693	1665.562
619.821	1669.900
619.949	1656.763
620.077	1667.725
620.205	1679.425
620.333	1679.763
620.462	1693.412
620.590	1686.925
620.718	1679.925
620.846	1675.350
620.974	1698.812
621.102	1679.275
621.230	1666.000
621.358	1703.775
621.487	1685.025
621.615	1683.088
621.743	1708.013
621.871	1683.812
621.999	1664.475
622.127	1681.200
622.255	1680.963
622.383	1684.912
622.512	1693.062
622.640	1685.675
622.768	1696.487
622.896	1682.638
623.024	1663.300
623.152	1710.687
623.280	1670.050
623.408	1681.525
623.537	1690.862
623.665	1692.225
623.793	1678.875
623.921	1678.600
624.049	1679.013
624.177	1687.275
624.305	1701.925
624.433	1690.437
624.562	1688.200
624.690	1672.850
624.818	1681.588
624.946	1698.662
625.074	1695.112
625.202	1693.888
625.330	1684.875
625.458	1690.725
625.587	1697.362
625.715	1680.125
625.843	1692.800
625.971	1700.375
626.099	1710.588
626.227	1710.338
626.355	1669.300
626.483	1695.150
626.612	1674.862
626.740	1681.975
626.868	1720.825
626.996	1702.125
627.124	1683.888
627.252	1675.250
627.380	1698.388
627.508	1700.500
627.637	1683.263
627.765	1696.737
627.893	1702.925
628.021	1690.200
628.149	1724.362
628.277	1731.875
628.405	1725.763
628.533	1709.537
628.662	1698.425
628.790	1698.112
628.918	1705.400
629.046	1702.388
629.174	1699.475
629.302	1733.275
629.430	1733.013
629.558	1726.350
629.687	1728.350
629.815	1724.312
629.943	1718.975
630.071	1721.550
630.199	1731.812
630.327	1726.088
630.455	1721.838
630.583	1745.787
630.712	1742.800
630.840	1727.388
630.968	1767.925
631.096	1759.263
631.224	1739.125
631.352	1744.162
631.480	1741.225
631.608	1748.463
631.737	1756.125
631.865	1783.912
631.993	1758.550
632.121	1762.125
632.249	1771.825
632.377	1775.875
632.505	1762.375
632.633	1757.775
632.762	1771.213
632.890	1776.412
633.018	1761.862
633.146	1771.112
633.274	1774.825
633.402	1762.888
633.530	1772.312
633.658	1777.700
633.787	1762.088
633.915	1759.400
634.043	1777.050
634.171	1766.013
634.299	1773.175
634.427	1762.500
634.555	1777.750
634.683	1785.937
634.812	1758.338
634.940	1763.687
635.068	1762.000
635.196	1766.875
635.324	1787.237
635.452	1783.537
635.580	1771.237
635.708	1767.263
635.837	1763.037
635.965	1758.237
636.093	1761.725
636.221	1761.350
636.349	1765.650
636.477	1751.862
636.605	1759.112
636.733	1750.350
636.862	1732.713
636.990	1740.787
637.118	1734.062
637.246	1727.325
637.374	1727.338
637.502	1724.638
637.630	1734.912
637.758	1738.750
637.887	1739.725
638.015	1728.463
638.143	1736.650
638.271	1721.475
638.399	1721.287
638.527	1704.325
638.655	1721.112
638.783	1730.725
638.912	1706.412
639.040	1684.187
639.168	1701.650
639.296	1703.800
639.424	1702.750
639.552	1713.725
639.680	1739.088
639.808	1703.787
639.937	1690.800
640.065	1704.263
640.193	1713.362
640.321	1691.662
640.449	1708.350
640.577	1708.675
640.705	1674.550
640.833	1695.450
640.962	1705.350
641.090	1697.463
641.218	1701.187
641.346	1674.588
641.474	1685.162
641.602	1675.088
641.730	1700.412
641.858	1697.625
641.987	1683.075
642.115	1714.937
642.243	1710.662
642.371	1715.537
642.499	1688.237
642.627	1707.050
642.755	1696.812
642.883	1711.237
643.012	1709.287
643.140	1696.200
643.268	1711.625
643.396	1717.700
643.524	1716.162
643.652	1709.437
643.780	1702.562
643.908	1710.862
644.037	1705.763
644.165	1697.013
644.293	1712.075
644.421	1692.600
644.549	1706.600
644.677	1726.287
644.805	1720.162
644.933	1695.513
645.062	1708.463
645.190	1701.088
645.318	1685.150
645.446	1717.187
645.574	1718.237
645.702	1705.950
645.830	1724.125
645.958	1729.937
646.087	1705.888
646.215	1713.550
646.343	1717.612
646.471	1720.750
646.599	1719.112
646.727	1701.575
646.855	1714.800
646.983	1709.187
647.112	1734.750
647.240	1731.800
647.368	1703.437
647.496	1711.787
647.624	1716.612
647.752	1716.187
647.880	1713.687
648.008	1733.375
648.137	1697.787
648.265	1712.275
648.393	1720.362
648.521	1726.450
648.649	1703.687
648.777	1696.600
648.905	1709.388
649.033	1685.525
649.162	1681.112
649.290	1704.325
649.418	1684.463
649.546	1691.450
649.674	1700.125
649.802	1682.650
649.930	1679.275
650.058	1688.562
650.187	1691.025
650.315	1704.862
650.443	1674.950
650.571	1692.062
650.699	1691.437
650.827	1698.800
650.955	1669.888
651.083	1676.937
651.212	1677.013
651.340	1658.950
651.468	1672.575
651.596	1656.513
651.724	1681.388
651.852	1673.537
651.980	1661.862
652.108	1669.537
652.237	1649.062
652.365	1636.912
652.493	1652.062
652.621	1657.225
652.749	1665.937
652.877	1653.713
653.005	1650.437
653.133	1664.800
653.262	1655.725
653.390	1643.787
653.518	1647.062
653.646	1649.250
653.774	1646.463
653.902	1668.900
654.030	1637.963
654.158	1629.550
654.287	1643.237
654.415	1634.575
654.543	1636.700
654.671	1623.888
654.799	1622.662
654.927	1631.350
655.055	1615.650
655.183	1612.588
655.312	1603.088
655.440	1631.625
655.568	1617.650
655.696	1604.125
655.824	1621.350
655.952	1630.800
656.080	1614.963
656.208	1620.987
656.337	1604.638
656.465	1611.487
656.593	1615.812
656.721	1620.550
656.849	1613.662
656.977	1604.400
657.105	1598.950
657.233	1603.487
657.362	1612.850
657.490	1595.425
657.618	1594.175
657.746	1603.562
657.874	1578.088
658.002	1595.175
658.130	1592.412
658.258	1587.963
658.387	1603.950
658.515	1580.450
658.643	1596.162
658.771	1581.388
658.899	1600.062
659.027	1587.425
659.155	1593.200
659.283	1580.800
659.412	1578.325
659.540	1584.513
659.668	1589.875
659.796	1571.088
659.924	1604.763
660.052	1571.175
660.180	1566.987
660.308	1582.750
660.437	1566.287
660.565	1588.037
660.693	1571.263
660.821	1584.125
660.949	1582.787
661.077	1564.237
661.205	1565.412
661.333	1556.862
661.462	1587.737
661.590	1590.675
661.718	1558.463
661.846	1565.437
661.974	1579.112
662.102	1550.187
662.230	1566.312
662.358	1559.487
662.487	1575.763
662.615	1554.138
662.743	1563.237
662.871	1559.300
662.999	1552.750
663.127	1550.425
663.255	1557.862
663.383	1568.750
663.512	1551.100
663.640	1557.963
663.768	1549.700
663.896	1562.112
664.024	1543.050
664.152	1554.425
664.280	1549.787
664.408	1545.750
664.537	1558.000
664.665	1554.412
664.793	1540.412
664.921	1544.112
665.049	1538.700
665.177	1567.025
665.305	1536.925
665.433	1547.312
665.562	1553.225
665.690	1542.400
665.818	1543.400
665.946	1541.700
666.074	1540.550
666.202	1545.600
666.330	1528.013
666.458	1535.025
666.587	1535.450
666.715	1544.800
666.843	1546.687
666.971	1526.250
667.099	1539.138
667.227	1551.575
667.355	1529.138
667.483	1531.450
667.612	1546.763
667.740	1541.263
667.868	1551.312
667.996	1545.562
668.124	1529.950
668.252	1546.412
668.380	1532.338
668.508	1548.150
668.637	1528.737
668.765	1535.388
668.893	1541.150
669.021	1543.300
669.149	1530.225
669.277	1540.312
669.405	1522.975
669.533	1537.213
669.662	1549.812
669.790	1530.412
669.918	1539.075
670.046	1524.100
670.174	1538.100
670.302	1520.937
670.430	1514.362
670.558	1517.537
670.687	1522.425
670.815	1526.687
670.943	1520.175
671.071	1512.713
671.199	1522.287
671.327	1522.375
671.455	1515.275
671.583	1514.888
671.712	1515.125
671.840	1512.362
671.968	1512.062
672.096	1495.075
672.224	1511.700
672.352	1509.013
672.480	1498.400
672.608	1502.325
672.737	1501.475
672.865	1485.162
672.993	1501.325
673.121	1501.825
673.249	1486.900
673.377	1496.950
673.505	1480.750
673.633	1486.537
673.762	1464.963
673.890	1496.700
674.018	1489.825
674.146	1476.625
674.274	1493.000
674.402	1472.713
674.530	1484.350
674.658	1471.487
674.787	1447.787
674.915	1452.700
675.043	1469.713
675.171	1461.550
675.299	1459.475
675.427	1458.138
675.555	1460.088
675.683	1457.112
675.812	1448.175
675.940	1463.662
676.068	1470.662
676.196	1452.750
676.324	1460.725
676.452	1448.650
676.580	1435.937
676.708	1435.925
676.837	1452.700
676.965	1443.312
677.093	1453.700
677.221	1428.675
677.349	1422.287
677.477	1419.537
677.605	1420.550
677.733	1427.362
677.862	1424.937
677.990	1417.638
678.118	1427.375
678.246	1403.775
678.374	1392.625
678.502	1406.638
678.630	1397.162
678.758	1397.537
678.887	1386.625
679.015	1410.112
679.143	1393.138
679.271	1389.513
679.399	1404.300
679.527	1382.100
679.655	1388.388
679.783	1390.925
679.912	1390.650
680.040	1389.750
680.168	1394.300
680.296	1373.275
680.424	1382.700
680.552	1370.312
680.680	1389.687
680.808	1368.787
680.937	1372.513
681.065	1375.725
681.193	1374.737
681.321	1393.612
681.449	1374.025
681.577	1371.713
681.705	1354.987
681.833	1350.075
681.962	1361.800
682.090	1363.412
682.218	1371.425
682.346	1354.100
682.474	1370.737
682.602	1372.537
682.730	1355.275
682.858	1340.475
682.987	1361.862
683.115	1345.675
683.243	1345.100
683.371	1350.575
683.499	1336.537
683.627	1358.125
683.755	1343.737
683.883	1347.900
684.012	1339.562
684.140	1335.963
684.268	1345.338
684.396	1347.725
684.524	1345.338
684.652	1350.687
684.780	1356.412
684.908	1331.312
685.037	1340.475
685.165	1335.825
685.293	1345.638
685.421	1333.325
685.549	1329.675
685.677	1339.375
685.805	1332.487
685.933	1336.800
686.062	1330.862
686.190	1333.150
686.318	1338.213
686.446	1342.937
686.574	1318.787
686.702	1347.175
686.830	1343.388
686.958	1324.463
687.087	1336.588
687.215	1311.100
687.343	1322.362
687.471	1322.250
687.599	1314.750
687.727	1320.537
687.855	1328.838
687.983	1317.050
688.112	1333.175
688.240	1309.487
688.368	1322.263
688.496	1325.275
688.624	1316.312
688.752	1307.287
688.880	1319.187
689.008	1307.650
689.137	1311.463
689.265	1315.900
689.393	1296.963
689.521	1311.975
689.649	1317.200
689.777	1317.600
689.905	1314.250
690.033	1319.013
690.162	1295.775
690.290	1302.000
690.418	1300.362
690.546	1318.600
690.674	1313.412
690.802	1298.912
690.930	1295.350
691.058	1286.775
691.187	1281.750
691.315	1297.888
691.443	1301.812
691.571	1280.287
691.699	1272.562
691.827	1285.175
691.955	1291.750
692.083	1279.537
692.212	1274.075
692.340	1288.725
692.468	1275.325
692.596	1271.950
692.724	1277.350
692.852	1274.737
692.980	1277.062
693.108	1255.975
693.237	1251.088
693.365	1266.388
693.493	1245.925
693.621	1249.787
693.749	1252.800
693.877	1250.300
694.005	1239.075
694.133	1256.425
694.262	1248.588
694.390	1229.888
694.518	1224.350
694.646	1239.275
694.774	1220.950
694.902	1230.388
695.030	1250.725
695.158	1215.562
695.287	1223.287
695.415	1217.912
695.543	1210.463
695.671	1211.350
695.799	1203.050
695.927	1210.200
696.055	1208.237
696.183	1220.187
696.312	1208.562
696.440	1191.013
696.568	1207.275
696.696	1193.763
696.824	1189.362
696.952	1184.713
697.080	1179.862
697.208	1202.300
697.337	1175.725
697.465	1169.950
697.593	1161.213
697.721	1169.263
697.849	1166.263
697.977	1165.025
698.105	1171.112
698.233	1170.638
698.362	1148.725
698.490	1156.862
698.618	1145.500
698.746	1144.537
698.874	1155.737
699.002	1142.062
699.130	1145.750
699.258	1149.825
699.387	1114.037
699.515	1135.500
699.643	1147.950
699.771	1133.963
699.899	1135.037
700.027	1135.000
700.155	1128.638
700.283	1129.463
700.412	1119.100
700.540	1117.537
700.668	1101.800
700.796	1123.713
700.924	1103.437
701.052	1114.537
701.180	1099.112
701.308	1102.375
701.437	1099.037
701.565	1093.787
701.693	1108.812
701.821	1109.925
701.949	1113.475
702.077	1078.975
702.205	1097.537
702.333	1090.325
702.462	1078.037
702.590	1085.250
702.718	1093.237
702.846	1080.187
702.974	1081.812
703.102	1066.875
703.230	1068.100
703.358	1045.825
703.487	1048.713
703.615	1061.375
703.743	1042.237
703.871	1063.300
703.999	1043.187
704.127	1046.412
704.255	1034.437
704.383	1036.675
704.512	1030.987
704.640	1030.763
704.768	1012.612
704.896	1030.025
705.024	1025.588
705.152	1022.425
705.280	1018.750
705.408	1005.900
705.537	1017.062
705.665	1009.000
705.793	1005.275
705.921	993.888
706.049	1012.925
706.177	992.800
706.305	997.250
706.433	999.862
706.562	991.013
706.690	990.388
706.818	978.750
706.946	978.450
707.074	970.775
707.202	969.175
707.330	965.500
707.458	976.400
707.587	963.300
707.715	971.087
707.843	963.638
707.971	964.175
708.099	962.525
708.227	951.437
708.355	936.812
708.483	947.025
708.612	941.437
708.740	943.525
708.868	942.750
708.996	945.000
709.124	950.975
709.252	930.950
709.380	924.013
709.508	913.675
709.637	923.650
709.765	921.625
709.893	911.437
710.021	917.650
710.149	902.800
710.277	915.888
710.405	911.275
710.533	896.050
710.662	906.538
710.790	912.175
710.918	900.962
711.046	897.638
711.174	897.687
711.302	888.600
711.430	886.437
711.558	903.875
711.687	875.775
711.815	884.500
711.943	892.913
712.071	880.925
712.199	883.825
712.327	870.587
712.455	875.612
712.583	867.850
712.712	881.850
712.840	871.850
712.968	855.875
713.096	869.587
713.224	860.087
713.352	848.937
713.480	845.862
713.608	848.250
713.737	846.437
713.865	846.750
713.993	840.350
714.121	827.375
714.249	839.538
714.377	834.812
714.505	843.800
714.633	822.625
714.762	823.675
714.890	833.487
715.018	820.500
715.146	819.388
715.274	815.600
715.402	803.937
715.530	815.225
715.658	807.763
715.787	804.237
715.915	813.163
716.043	797.975
716.171	809.362
716.299	811.850
716.427	804.362
716.555	797.825
716.683	793.712
716.812	796.538
716.940	792.775
717.068	775.625
717.196	791.975
717.324	785.825
717.452	780.000
717.580	776.437
717.708	775.825
717.837	787.175
717.965	771.275
718.093	769.450
718.221	764.962
718.349	766.975
718.477	764.500
718.605	764.025
718.733	762.763
718.862	757.413
718.990	750.650
719.118	753.750
719.246	748.500
719.374	746.775
719.502	757.475
719.630	761.000
719.758	740.750
719.887	741.925
720.015	749.112
720.143	731.900
720.271	736.550
720.399	739.750
720.527	741.525
720.655	720.888
720.783	730.375
720.912	734.212
721.040	734.675
721.168	714.013
721.296	722.062
721.424	718.337
721.552	720.600
721.680	716.388
721.808	711.962
721.937	707.013
722.065	709.325
722.193	695.600
722.321	699.600
722.449	703.625
722.577	699.112
722.705	688.763
722.833	696.712
722.962	699.775
723.090	681.962
723.218	684.275
723.346	676.350
723.474	688.075
723.602	682.812
723.730	669.350
723.858	684.212
723.987	680.163
724.115	667.225
724.243	666.212
724.371	664.638
724.499	671.913
724.627	665.062
724.755	659.862
724.883	663.200
725.012	656.937
725.140	654.425
725.268	656.362
725.396	650.663
725.524	648.200
725.652	650.087
725.780	641.788
725.908	633.163
726.037	640.750
726.165	635.337
726.293	622.812
726.421	631.175
726.549	644.788
726.677	623.987
726.805	633.175
726.933	624.275
727.062	611.675
727.190	619.400
727.318	617.138
727.446	618.487
727.574	618.250
727.702	610.500
727.830	603.962
727.958	611.650
728.087	602.725
728.215	598.712
728.343	592.288
728.471	607.587
728.599	596.138
728.727	597.837
728.855	588.375
728.983	591.937
729.112	583.175
729.240	585.663
729.368	582.450
729.496	581.325
729.624	586.337
729.752	580.362
729.880	575.538
730.008	572.400
730.137	578.413
730.265	569.950
730.393	575.950
730.521	565.550
730.649	569.663
730.777	568.737
730.905	554.325
731.033	563.163
731.162	559.638
731.290	559.487
731.418	557.975
731.546	565.462
731.674	542.525
731.802	542.562
731.930	551.250
732.058	545.962
732.187	548.413
732.315	533.250
732.443	544.587
732.571	536.050
732.699	537.575
732.827	528.525
732.955	525.300
733.083	525.975
733.212	523.362
733.340	530.750
733.468	524.087
733.596	523.788
733.724	515.487
733.852	520.587
733.980	518.737
734.108	518.687
734.237	524.525
734.365	510.812
734.493	512.712
734.621	509.837
734.749	509.738
734.877	505.788
735.005	501.512
735.133	505.913
735.262	508.800
735.390	496.562
735.518	493.125
735.646	502.550
735.774	494.488
735.902	502.613
736.030	493.250
736.158	494.775
736.287	484.238
736.415	491.575
736.543	487.400
736.671	472.962
736.799	485.175
736.927	493.187
