sample1_PP_at_750.00nm_cut_at_1008.00Y_01.dat
15.05.2023
10:53:53
cut middle at Y: 1008.00
top cursor: 1048 down cursor: 968 mean of: 80 lines , 2560 datapoints
wavelength(nm)	intensity[arb. units]
585.996	2522.925
586.124	2461.387
586.252	2453.838
586.380	2477.062
586.508	2494.588
586.637	2470.537
586.765	2494.075
586.893	2501.412
587.021	2538.588
587.149	2588.012
587.277	2535.525
587.405	2621.562
587.533	2543.075
587.662	2664.963
587.790	2657.025
587.918	2558.325
588.046	2595.975
588.174	2573.800
588.302	2625.287
588.430	2627.738
588.558	2612.100
588.687	2638.300
588.815	2617.200
588.943	2638.512
589.071	2653.500
589.199	2676.812
589.327	2641.925
589.455	2643.613
589.583	2730.875
589.712	2699.037
589.840	2661.350
589.968	2668.075
590.096	2658.713
590.224	2718.963
590.352	2682.412
590.480	2741.437
590.608	2717.175
590.737	2789.825
590.865	2799.812
590.993	2725.925
591.121	2743.925
591.249	2772.937
591.377	2750.012
591.505	2780.675
591.633	2838.488
591.762	2820.175
591.890	2939.075
592.018	2775.475
592.146	2793.375
592.274	2827.787
592.402	2812.588
592.530	2822.600
592.658	3013.713
592.787	2864.812
592.915	2992.637
593.043	2853.050
593.171	2876.562
593.299	2885.537
593.427	2899.113
593.555	2897.450
593.683	2885.300
593.812	2923.588
593.940	2934.838
594.068	2936.012
594.196	2957.975
594.324	2969.437
594.452	2977.775
594.580	2986.637
594.708	3012.412
594.837	3000.725
594.965	3085.150
595.093	3059.363
595.221	3102.775
595.349	3200.887
595.477	3079.850
595.605	3083.550
595.733	3119.662
595.862	3292.387
595.990	3129.950
596.118	3164.350
596.246	3330.187
596.374	3207.350
596.502	3171.525
596.630	3198.150
596.758	3191.213
596.887	3215.600
597.015	3202.425
597.143	3229.238
597.271	3214.675
597.399	3205.600
597.527	3242.963
597.655	3244.937
597.783	3214.238
597.912	3241.825
598.040	3253.500
598.168	3322.800
598.296	3265.187
598.424	3282.887
598.552	3305.700
598.680	3278.937
598.808	3395.600
598.937	3286.838
599.065	3280.450
599.193	3406.550
599.321	3402.463
599.449	3311.350
599.577	3303.375
599.705	3380.463
599.833	3298.363
599.962	3303.338
600.090	3372.963
600.218	3330.562
600.346	3423.200
600.474	3332.187
600.602	3288.375
600.730	3340.488
600.858	3315.850
600.987	3497.088
601.115	3336.437
601.243	3370.213
601.371	3368.225
601.499	3370.637
601.627	3399.875
601.755	3401.113
601.883	3425.238
602.012	3438.800
602.140	3389.662
602.268	3497.225
602.396	3451.588
602.524	3472.363
602.652	3451.463
602.780	3449.800
602.908	3476.750
603.037	3554.050
603.165	3506.687
603.293	3530.100
603.421	3538.075
603.549	3558.988
603.677	3628.025
603.805	3585.175
603.933	3601.725
604.062	3715.075
604.190	3639.375
604.318	3607.350
604.446	3628.825
604.574	3666.287
604.702	3671.812
604.830	3683.187
604.958	3706.850
605.087	3697.575
605.215	3727.725
605.343	3734.150
605.471	3757.912
605.599	3762.512
605.727	3749.787
605.855	3780.000
605.983	3774.925
606.112	3769.025
606.240	3791.537
606.368	3810.700
606.496	3996.488
606.624	3785.300
606.752	3863.100
606.880	3987.787
607.008	4068.637
607.137	4013.738
607.265	3830.287
607.393	3868.575
607.521	3956.062
607.649	3867.262
607.777	3901.775
607.905	3927.412
608.033	3913.375
608.162	3856.637
608.290	3968.525
608.418	3885.575
608.546	3921.713
608.674	3935.562
608.802	3846.625
608.930	3857.887
609.058	3864.025
609.187	3889.963
609.315	3933.062
609.443	3841.875
609.571	3949.775
609.699	3868.537
609.827	3895.662
609.955	3920.637
610.083	3857.125
610.212	3868.113
610.340	3842.925
610.468	3975.175
610.596	3942.512
610.724	3926.100
610.852	3872.075
610.980	3896.463
611.108	3954.213
611.237	3871.213
611.365	3863.912
611.493	3867.025
611.621	3876.650
611.749	3892.850
611.877	3896.775
612.005	3901.912
612.133	3918.838
612.262	3881.838
612.390	3882.412
612.518	3945.537
612.646	4028.488
612.774	3915.700
612.902	3909.887
613.030	3915.875
613.158	4021.275
613.287	3965.088
613.415	3891.650
613.543	3920.725
613.671	3927.500
613.799	3962.175
613.927	3980.312
614.055	3974.450
614.183	4093.437
614.312	3957.100
614.440	4102.150
614.568	3967.113
614.696	3969.387
614.824	4168.937
614.952	4023.113
615.080	3965.075
615.208	4042.850
615.337	4020.700
615.465	4015.787
615.593	4034.787
615.721	4092.125
615.849	4086.162
615.977	4079.988
616.105	4096.625
616.233	4066.950
616.362	4121.425
616.490	4048.637
616.618	4020.575
616.746	4113.788
616.874	4155.637
617.002	4088.762
617.130	4136.712
617.258	4230.712
617.387	4119.550
617.515	4060.238
617.643	4092.725
617.771	4135.050
617.899	4158.262
618.027	4068.350
618.155	4203.150
618.283	4049.088
618.412	4104.275
618.540	4149.850
618.668	4117.800
618.796	4084.525
618.924	4202.450
619.052	4086.975
619.180	4048.625
619.308	4097.288
619.437	4098.587
619.565	4084.300
619.693	4036.250
619.821	4071.675
619.949	4040.088
620.077	4094.375
620.205	4092.187
620.333	4082.025
620.462	4087.000
620.590	4099.750
620.718	4005.687
620.846	4145.150
620.974	4140.962
621.102	4076.512
621.230	4011.738
621.358	4113.712
621.487	4002.287
621.615	4050.175
621.743	4042.175
621.871	4015.500
621.999	4097.200
622.127	4026.525
622.255	4017.387
622.383	4011.200
622.512	4021.437
622.640	4151.425
622.768	3947.425
622.896	3980.988
623.024	3979.213
623.152	4062.713
623.280	4045.387
623.408	3942.687
623.537	3982.613
623.665	3941.463
623.793	3978.887
623.921	3945.600
624.049	3942.950
624.177	3947.887
624.305	3966.950
624.433	3976.725
624.562	3934.562
624.690	3959.575
624.818	3977.512
624.946	4110.250
625.074	3968.213
625.202	3887.738
625.330	3876.625
625.458	3939.575
625.587	3897.750
625.715	3969.562
625.843	4026.600
625.971	3909.225
626.099	3886.575
626.227	3916.387
626.355	3862.162
626.483	3963.887
626.612	3836.637
626.740	3842.325
626.868	3882.700
626.996	3807.037
627.124	3799.562
627.252	3813.338
627.380	3862.675
627.508	3819.225
627.637	3803.500
627.765	3836.200
627.893	3819.687
628.021	3779.550
628.149	3813.762
628.277	3821.062
628.405	3853.825
628.533	3763.550
628.662	3804.113
628.790	3764.225
628.918	3735.450
629.046	3751.012
629.174	3756.250
629.302	3859.525
629.430	3742.937
629.558	3742.988
629.687	3749.113
629.815	3738.238
629.943	3786.475
630.071	3759.500
630.199	3771.937
630.327	3746.838
630.455	3698.025
630.583	3803.150
630.712	3745.637
630.840	3764.275
630.968	3761.650
631.096	3701.637
631.224	3708.762
631.352	3702.500
631.480	3747.787
631.608	3711.250
631.737	3798.062
631.865	3872.150
631.993	3696.800
632.121	3820.975
632.249	3791.600
632.377	3747.088
632.505	3730.762
632.633	3637.213
632.762	3731.700
632.890	3790.725
633.018	3644.012
633.146	3709.137
633.274	3687.025
633.402	3679.975
633.530	3634.512
633.658	3791.137
633.787	3605.550
633.915	3688.750
634.043	3620.625
634.171	3618.162
634.299	3612.213
634.427	3698.875
634.555	3630.912
634.683	3584.025
634.812	3558.037
634.940	3577.838
635.068	3517.300
635.196	3563.975
635.324	3526.350
635.452	3601.137
635.580	3491.637
635.708	3488.312
635.837	3540.000
635.965	3483.137
636.093	3478.838
636.221	3436.675
636.349	3521.000
636.477	3386.000
636.605	3585.050
636.733	3364.988
636.862	3347.738
636.990	3378.187
637.118	3438.887
637.246	3389.975
637.374	3334.025
637.502	3322.075
637.630	3285.162
637.758	3296.187
637.887	3268.488
638.015	3256.988
638.143	3246.088
638.271	3256.150
638.399	3240.875
638.527	3214.600
638.655	3189.537
638.783	3342.775
638.912	3236.537
639.040	3213.963
639.168	3208.900
639.296	3158.700
639.424	3290.700
639.552	3154.650
639.680	3157.775
639.808	3167.925
639.937	3100.838
640.065	3111.775
640.193	3175.588
640.321	3103.588
640.449	3117.863
640.577	3190.600
640.705	3098.400
640.833	3199.488
640.962	3065.287
641.090	3060.225
641.218	3031.325
641.346	3059.137
641.474	3056.725
641.602	3016.100
641.730	3005.925
641.858	3003.287
641.987	3041.450
642.115	3004.900
642.243	3037.287
642.371	3004.113
642.499	2991.562
642.627	3024.925
642.755	3034.588
642.883	3043.500
643.012	2984.562
643.140	2935.375
643.268	2955.812
643.396	2944.988
643.524	3044.812
643.652	2966.725
643.780	2937.037
643.908	2934.325
644.037	3034.000
644.165	2919.475
644.293	2908.550
644.421	2895.325
644.549	2949.450
644.677	2891.000
644.805	2913.450
644.933	2856.613
645.062	2869.425
645.190	2880.425
645.318	2938.537
645.446	2873.675
645.574	2900.625
645.702	2842.812
645.830	3018.900
645.958	2825.675
646.087	2984.412
646.215	2788.662
646.343	2974.225
646.471	2836.175
646.599	2856.113
646.727	2799.312
646.855	2785.412
646.983	2837.812
647.112	2756.800
647.240	2917.762
647.368	2748.275
647.496	2795.262
647.624	2721.575
647.752	2703.162
647.880	2729.988
648.008	2712.537
648.137	2691.325
648.265	2680.912
648.393	2674.725
648.521	2687.775
648.649	2677.425
648.777	2669.562
648.905	2653.012
649.033	2632.738
649.162	2618.812
649.290	2619.738
649.418	2624.550
649.546	2623.850
649.674	2668.825
649.802	2603.262
649.930	2710.000
650.058	2540.363
650.187	2569.375
650.315	2527.175
650.443	2592.037
650.571	2539.762
650.699	2509.863
650.827	2489.637
650.955	2502.600
651.083	2490.975
651.212	2516.213
651.340	2539.175
651.468	2472.512
651.596	2460.150
651.724	2453.925
651.852	2442.588
651.980	2414.150
652.108	2476.950
652.237	2429.475
652.365	2446.387
652.493	2410.113
652.621	2401.662
652.749	2423.600
652.877	2383.375
653.005	2380.387
653.133	2376.125
653.262	2381.825
653.390	2369.287
653.518	2365.963
653.646	2335.500
653.774	2371.600
653.902	2352.687
654.030	2336.275
654.158	2313.000
654.287	2322.687
654.415	2307.975
654.543	2296.863
654.671	2284.588
654.799	2272.375
654.927	2273.687
655.055	2254.075
655.183	2246.988
655.312	2235.012
655.440	2246.900
655.568	2235.100
655.696	2218.463
655.824	2223.850
655.952	2224.400
656.080	2181.812
656.208	2207.075
656.337	2178.325
656.465	2187.088
656.593	2178.387
656.721	2172.800
656.849	2176.625
656.977	2152.287
657.105	2133.000
657.233	2118.437
657.362	2136.713
657.490	2124.738
657.618	2126.838
657.746	2109.262
657.874	2079.012
658.002	2107.800
658.130	2081.775
658.258	2079.775
658.387	2091.687
658.515	2057.525
658.643	2061.562
658.771	2068.750
658.899	2056.912
659.027	2049.387
659.155	2037.237
659.283	2010.375
659.412	1986.600
659.540	2013.112
659.668	2015.650
659.796	1998.013
659.924	2006.975
660.052	2004.963
660.180	1966.362
660.308	1987.900
660.437	1950.888
660.565	1953.338
660.693	1940.450
660.821	1944.825
660.949	1941.000
661.077	1931.000
661.205	1932.312
661.333	1914.187
661.462	1933.062
661.590	1938.638
661.718	1901.237
661.846	1892.700
661.974	1895.612
662.102	1896.612
662.230	1873.412
662.358	1856.425
662.487	1865.800
662.615	1857.275
662.743	1874.375
662.871	1855.237
662.999	1849.825
663.127	1829.150
663.255	1824.525
663.383	1847.662
663.512	1835.400
663.640	1821.562
663.768	1796.825
663.896	1815.450
664.024	1794.675
664.152	1806.237
664.280	1796.662
664.408	1783.088
664.537	1781.600
664.665	1772.600
664.793	1759.625
664.921	1738.125
665.049	1751.437
665.177	1771.750
665.305	1734.200
665.433	1729.862
665.562	1736.612
665.690	1728.362
665.818	1727.300
665.946	1727.388
666.074	1708.138
666.202	1696.050
666.330	1696.463
666.458	1697.888
666.587	1682.812
666.715	1684.588
666.843	1685.300
666.971	1671.975
667.099	1673.525
667.227	1678.763
667.355	1648.850
667.483	1645.775
667.612	1648.537
667.740	1650.150
667.868	1653.625
667.996	1638.350
668.124	1632.650
668.252	1622.200
668.380	1603.200
668.508	1626.638
668.637	1603.787
668.765	1619.138
668.893	1604.437
669.021	1590.937
669.149	1580.713
669.277	1568.225
669.405	1575.013
669.533	1589.400
669.662	1574.537
669.790	1544.338
669.918	1554.112
670.046	1561.325
670.174	1538.325
670.302	1544.662
670.430	1514.000
670.558	1527.162
670.687	1520.562
670.815	1507.737
670.943	1509.725
671.071	1498.675
671.199	1490.200
671.327	1495.763
671.455	1484.662
671.583	1478.900
671.712	1474.862
671.840	1467.275
671.968	1457.600
672.096	1464.175
672.224	1453.963
672.352	1445.075
672.480	1449.150
672.608	1433.375
672.737	1435.537
672.865	1415.013
672.993	1427.112
673.121	1422.638
673.249	1404.075
673.377	1394.013
673.505	1396.112
673.633	1377.463
673.762	1387.237
673.890	1386.025
674.018	1383.013
674.146	1357.250
674.274	1379.775
674.402	1357.638
674.530	1359.900
674.658	1352.850
674.787	1330.400
674.915	1330.463
675.043	1325.925
675.171	1335.325
675.299	1328.037
675.427	1319.475
675.555	1301.338
675.683	1317.750
675.812	1287.513
675.940	1275.912
676.068	1297.763
676.196	1278.713
676.324	1268.463
676.452	1269.312
676.580	1255.937
676.708	1251.388
676.837	1271.787
676.965	1240.362
677.093	1245.225
677.221	1240.612
677.349	1231.275
677.477	1228.463
677.605	1209.450
677.733	1228.437
677.862	1205.162
677.990	1212.787
678.118	1192.550
678.246	1193.513
678.374	1173.600
678.502	1180.900
678.630	1168.300
678.758	1168.200
678.887	1163.963
679.015	1172.025
679.143	1143.300
679.271	1152.025
679.399	1146.912
679.527	1140.575
679.655	1147.687
679.783	1134.500
679.912	1135.388
680.040	1135.213
680.168	1122.700
680.296	1109.700
680.424	1121.475
680.552	1098.213
680.680	1107.550
680.808	1096.888
680.937	1099.275
681.065	1104.537
681.193	1090.138
681.321	1085.275
681.449	1087.687
681.577	1080.987
681.705	1072.463
681.833	1055.838
681.962	1058.425
682.090	1070.775
682.218	1064.325
682.346	1039.362
682.474	1049.025
682.602	1044.463
682.730	1042.300
682.858	1031.400
682.987	1040.812
683.115	1034.150
683.243	1020.375
683.371	1024.513
683.499	1012.225
683.627	1032.287
683.755	1013.500
683.883	1015.075
684.012	1007.237
684.140	994.788
684.268	1010.575
684.396	1004.062
684.524	1002.800
684.652	1001.150
684.780	995.562
684.908	982.138
685.037	987.750
685.165	986.112
685.293	992.725
685.421	968.312
685.549	960.288
685.677	961.013
685.805	958.200
685.933	961.062
686.062	946.950
686.190	953.475
686.318	946.700
686.446	962.337
686.574	953.388
686.702	945.212
686.830	935.513
686.958	922.050
687.087	924.450
687.215	916.725
687.343	925.663
687.471	924.125
687.599	908.775
687.727	904.250
687.855	918.212
687.983	910.050
688.112	911.538
688.240	894.900
688.368	902.775
688.496	898.937
688.624	886.987
688.752	887.112
688.880	887.400
689.008	876.425
689.137	875.500
689.265	875.800
689.393	860.712
689.521	875.388
689.649	863.275
689.777	861.437
689.905	859.638
690.033	860.150
690.162	853.062
690.290	849.087
690.418	850.350
690.546	855.513
690.674	847.700
690.802	840.475
690.930	826.975
691.058	829.562
691.187	824.800
691.315	831.275
691.443	819.800
691.571	812.125
691.699	808.400
691.827	810.575
691.955	822.950
692.083	813.000
692.212	799.812
692.340	812.913
692.468	798.112
692.596	784.250
692.724	783.288
692.852	787.250
692.980	791.062
693.108	781.275
693.237	776.575
693.365	772.538
693.493	771.950
693.621	766.100
693.749	756.300
693.877	759.587
694.005	752.513
694.133	753.763
694.262	740.525
694.390	744.638
694.518	737.587
694.646	739.937
694.774	745.087
694.902	727.375
695.030	743.087
695.158	717.575
695.287	729.437
695.415	723.788
695.543	723.487
695.671	714.950
695.799	713.925
695.927	710.763
696.055	710.000
696.183	707.200
696.312	702.425
696.440	699.312
696.568	691.050
696.696	693.763
696.824	689.850
696.952	688.737
697.080	678.413
697.208	687.925
697.337	675.538
697.465	672.888
697.593	677.837
697.721	672.950
697.849	657.025
697.977	661.425
698.105	668.550
698.233	657.013
698.362	652.650
698.490	657.650
698.618	648.725
698.746	648.612
698.874	637.500
699.002	646.625
699.130	638.788
699.258	643.312
699.387	629.225
699.515	633.100
699.643	634.375
699.771	638.413
699.899	615.888
700.027	623.788
700.155	622.263
700.283	631.175
700.412	618.500
700.540	610.550
700.668	600.925
700.796	612.950
700.924	607.862
701.052	608.913
701.180	605.925
701.308	600.062
701.437	597.650
701.565	598.812
701.693	589.763
701.821	600.225
701.949	607.138
702.077	577.312
702.205	585.275
702.333	576.025
702.462	578.462
702.590	574.538
702.718	571.800
702.846	565.250
702.974	580.550
703.102	564.150
703.230	572.650
703.358	550.500
703.487	555.413
703.615	558.925
703.743	550.538
703.871	553.100
703.999	544.650
704.127	542.312
704.255	536.087
704.383	539.300
704.512	535.425
704.640	539.913
704.768	529.312
704.896	530.825
705.024	532.812
705.152	533.050
705.280	524.987
705.408	520.700
705.537	519.538
705.665	521.038
705.793	513.150
705.921	508.913
706.049	509.825
706.177	512.513
706.305	502.337
706.433	505.337
706.562	499.087
706.690	497.875
706.818	497.238
706.946	497.825
707.074	486.525
707.202	489.050
707.330	488.175
707.458	490.837
707.587	479.288
707.715	484.613
707.843	474.750
707.971	489.025
708.099	479.950
708.227	473.238
708.355	471.363
708.483	471.288
708.612	466.900
708.740	467.425
708.868	468.387
708.996	462.575
709.124	469.100
709.252	458.775
709.380	467.625
709.508	451.012
709.637	456.937
709.765	457.150
709.893	458.238
710.021	459.150
710.149	449.200
710.277	449.913
710.405	446.312
710.533	441.275
710.662	435.275
710.790	440.550
710.918	435.500
711.046	432.950
711.174	439.350
711.302	434.525
711.430	433.887
711.558	435.050
711.687	424.887
711.815	424.512
711.943	428.363
712.071	420.675
712.199	423.350
712.327	429.875
712.455	417.725
712.583	416.613
712.712	425.488
712.840	418.675
712.968	413.700
713.096	416.350
713.224	404.137
713.352	407.650
713.480	401.038
713.608	402.525
713.737	397.488
713.865	404.988
713.993	402.837
714.121	397.875
714.249	405.875
714.377	394.187
714.505	410.050
714.633	394.450
714.762	392.863
714.890	388.462
715.018	398.125
715.146	386.437
715.274	388.075
715.402	381.075
715.530	388.150
715.658	384.913
715.787	388.575
715.915	375.288
716.043	375.937
716.171	379.788
716.299	385.450
716.427	374.250
716.555	380.300
716.683	381.988
716.812	372.875
716.940	375.663
717.068	365.012
717.196	362.288
717.324	368.812
717.452	363.225
717.580	364.762
717.708	364.587
717.837	369.087
717.965	369.363
718.093	357.762
718.221	356.875
718.349	357.675
718.477	353.650
718.605	350.950
718.733	355.312
718.862	343.425
718.990	345.937
719.118	349.350
719.246	345.650
719.374	343.175
719.502	350.675
719.630	362.437
719.758	342.788
719.887	343.125
720.015	346.475
720.143	338.200
720.271	339.062
720.399	336.587
720.527	344.875
720.655	333.075
720.783	333.738
720.912	340.462
721.040	338.087
721.168	334.012
721.296	331.050
721.424	330.275
721.552	325.988
721.680	323.225
721.808	334.950
721.937	330.163
722.065	316.437
722.193	316.275
722.321	321.413
722.449	319.238
722.577	322.887
722.705	313.000
722.833	314.625
722.962	319.625
723.090	301.587
723.218	312.250
723.346	307.738
723.474	310.350
723.602	311.450
723.730	302.663
723.858	314.462
723.987	308.600
724.115	307.187
724.243	301.637
724.371	305.225
724.499	306.025
724.627	301.312
724.755	302.712
724.883	304.050
725.012	301.775
725.140	296.000
725.268	302.812
725.396	296.738
725.524	289.925
725.652	295.150
725.780	289.738
725.908	293.400
726.037	289.475
726.165	283.337
726.293	282.575
726.421	283.337
726.549	297.050
726.677	289.863
726.805	283.350
726.933	291.600
727.062	279.650
727.190	278.950
727.318	280.012
727.446	281.413
727.574	280.863
727.702	277.337
727.830	277.137
727.958	281.300
728.087	275.200
728.215	275.738
728.343	270.687
728.471	275.150
728.599	269.600
728.727	271.775
728.855	270.538
728.983	271.038
729.112	272.562
729.240	271.400
729.368	267.663
729.496	274.163
729.624	273.562
729.752	263.762
729.880	261.762
730.008	267.712
730.137	261.075
730.265	267.462
730.393	260.962
730.521	257.850
730.649	266.462
730.777	262.262
730.905	259.288
731.033	264.337
731.162	256.437
731.290	263.038
731.418	257.025
731.546	276.700
731.674	250.012
731.802	253.500
731.930	255.175
732.058	258.413
732.187	254.425
732.315	249.463
732.443	257.087
732.571	245.838
732.699	248.300
732.827	249.050
732.955	244.750
733.083	243.287
733.212	244.475
733.340	244.150
733.468	242.175
733.596	244.575
733.724	237.187
733.852	241.750
733.980	243.950
734.108	244.175
734.237	249.775
734.365	237.950
734.493	246.300
734.621	239.062
734.749	241.625
734.877	238.200
735.005	238.963
735.133	235.088
735.262	235.387
735.390	235.713
735.518	234.700
735.646	233.613
735.774	233.562
735.902	234.213
736.030	235.287
736.158	245.137
736.287	231.187
736.415	233.613
736.543	231.762
736.671	228.262
736.799	226.800
736.927	234.375
737.055	224.325
737.183	225.287
737.312	230.250
737.440	235.713
737.568	239.963
737.696	225.725
737.824	222.725
737.952	237.588
738.080	227.287
738.208	228.687
