sample3_PP_at_750.00nm_cut_at_1008.00Y_01.dat
15.05.2023
10:58:13
cut middle at Y: 1008.00
top cursor: 1048 down cursor: 968 mean of: 80 lines , 2560 datapoints
wavelength(nm)	intensity[arb. units]
585.996	1034.388
586.124	1025.662
586.252	1011.075
586.380	1023.425
586.508	1023.625
586.637	1024.263
586.765	1028.100
586.893	1040.875
587.021	1034.375
587.149	1051.875
587.277	1039.100
587.405	1048.325
587.533	1046.638
587.662	1061.937
587.790	1069.725
587.918	1059.600
588.046	1066.650
588.174	1057.737
588.302	1067.362
588.430	1073.338
588.558	1061.763
588.687	1070.513
588.815	1081.750
588.943	1075.437
589.071	1073.463
589.199	1088.625
589.327	1078.350
589.455	1075.575
589.583	1080.600
589.712	1090.825
589.840	1085.925
589.968	1087.612
590.096	1093.325
590.224	1099.638
590.352	1093.275
590.480	1093.050
590.608	1099.475
590.737	1078.062
590.865	1111.487
590.993	1111.862
591.121	1109.513
591.249	1107.725
591.377	1111.725
591.505	1111.450
591.633	1104.237
591.762	1128.088
591.890	1134.550
592.018	1134.287
592.146	1111.175
592.274	1140.575
592.402	1134.888
592.530	1139.963
592.658	1153.400
592.787	1137.850
592.915	1147.000
593.043	1153.900
593.171	1152.612
593.299	1173.487
593.427	1158.175
593.555	1161.600
593.683	1164.475
593.812	1163.175
593.940	1171.850
594.068	1171.525
594.196	1205.475
594.324	1175.525
594.452	1193.100
594.580	1218.800
594.708	1188.412
594.837	1218.300
594.965	1212.187
595.093	1233.412
595.221	1217.625
595.349	1228.437
595.477	1228.475
595.605	1236.638
595.733	1254.588
595.862	1252.412
595.990	1237.662
596.118	1253.050
596.246	1248.088
596.374	1273.000
596.502	1287.737
596.630	1271.400
596.758	1281.050
596.887	1282.987
597.015	1305.425
597.143	1284.138
597.271	1290.912
597.399	1301.912
597.527	1301.200
597.655	1296.088
597.783	1321.638
597.912	1303.725
598.040	1321.200
598.168	1318.787
598.296	1311.862
598.424	1318.650
598.552	1334.350
598.680	1324.162
598.808	1323.763
598.937	1333.650
599.065	1338.162
599.193	1342.162
599.321	1326.300
599.449	1350.050
599.577	1327.500
599.705	1336.213
599.833	1345.287
599.962	1343.862
600.090	1353.713
600.218	1345.437
600.346	1357.737
600.474	1366.062
600.602	1364.575
600.730	1360.750
600.858	1377.612
600.987	1379.275
601.115	1374.088
601.243	1379.912
601.371	1378.362
601.499	1386.388
601.627	1384.812
601.755	1410.475
601.883	1410.787
602.012	1414.037
602.140	1400.763
602.268	1427.975
602.396	1437.175
602.524	1431.937
602.652	1438.237
602.780	1443.963
602.908	1459.612
603.037	1460.300
603.165	1477.950
603.293	1481.187
603.421	1491.525
603.549	1477.013
603.677	1523.687
603.805	1499.463
603.933	1511.838
604.062	1509.412
604.190	1529.100
604.318	1522.763
604.446	1554.125
604.574	1550.650
604.702	1556.013
604.830	1562.050
604.958	1571.263
605.087	1602.350
605.215	1584.513
605.343	1603.300
605.471	1597.850
605.599	1604.975
605.727	1631.237
605.855	1654.588
605.983	1638.437
606.112	1648.812
606.240	1650.650
606.368	1666.437
606.496	1679.850
606.624	1664.225
606.752	1688.925
606.880	1685.912
607.008	1707.375
607.137	1720.513
607.265	1709.187
607.393	1730.838
607.521	1741.325
607.649	1724.463
607.777	1713.862
607.905	1720.062
608.033	1749.463
608.162	1746.463
608.290	1739.425
608.418	1774.338
608.546	1751.812
608.674	1788.838
608.802	1761.763
608.930	1781.475
609.058	1780.225
609.187	1781.888
609.315	1786.287
609.443	1790.287
609.571	1801.412
609.699	1800.662
609.827	1810.537
609.955	1805.912
610.083	1823.425
610.212	1818.963
610.340	1818.263
610.468	1826.350
610.596	1836.912
610.724	1856.325
610.852	1848.787
610.980	1848.700
611.108	1856.600
611.237	1857.713
611.365	1861.162
611.493	1869.487
611.621	1888.737
611.749	1904.638
611.877	1906.375
612.005	1904.075
612.133	1904.700
612.262	1906.700
612.390	1936.862
612.518	1928.275
612.646	1929.237
612.774	1956.675
612.902	1956.825
613.030	1964.400
613.158	1976.400
613.287	2017.525
613.415	2000.312
613.543	2013.838
613.671	1999.862
613.799	2027.612
613.927	2020.825
614.055	2023.225
614.183	2067.500
614.312	2047.838
614.440	2069.375
614.568	2068.863
614.696	2080.312
614.824	2086.525
614.952	2095.575
615.080	2116.650
615.208	2116.937
615.337	2132.600
615.465	2136.562
615.593	2164.162
615.721	2179.062
615.849	2185.875
615.977	2210.000
616.105	2194.238
616.233	2207.187
616.362	2232.975
616.490	2213.537
616.618	2234.037
616.746	2239.650
616.874	2288.113
617.002	2274.000
617.130	2306.175
617.258	2337.825
617.387	2293.000
617.515	2304.375
617.643	2323.713
617.771	2334.025
617.899	2340.875
618.027	2322.300
618.155	2400.662
618.283	2339.775
618.412	2352.562
618.540	2405.588
618.668	2363.425
618.796	2377.100
618.924	2467.662
619.052	2396.088
619.180	2397.250
619.308	2445.662
619.437	2443.738
619.565	2420.488
619.693	2424.050
619.821	2446.812
619.949	2433.475
620.077	2479.500
620.205	2481.838
620.333	2485.838
620.462	2534.463
620.590	2552.613
620.718	2496.687
620.846	2563.262
620.974	2596.725
621.102	2563.250
621.230	2536.812
621.358	2644.338
621.487	2552.838
621.615	2589.437
621.743	2605.425
621.871	2584.137
621.999	2667.537
622.127	2611.012
622.255	2616.000
622.383	2630.350
622.512	2638.363
622.640	2778.738
622.768	2634.650
622.896	2668.637
623.024	2679.637
623.152	2758.625
623.280	2720.012
623.408	2689.588
623.537	2720.400
623.665	2699.700
623.793	2765.200
623.921	2714.238
624.049	2718.300
624.177	2735.937
624.305	2796.500
624.433	2783.338
624.562	2821.113
624.690	2828.912
624.818	2852.975
624.946	2963.550
625.074	2867.838
625.202	2808.287
625.330	2835.650
625.458	2912.425
625.587	2876.437
625.715	2916.537
625.843	2997.525
625.971	2921.588
626.099	2920.213
626.227	2943.950
626.355	2921.562
626.483	2977.175
626.612	2927.412
626.740	2945.512
626.868	2997.950
626.996	2972.825
627.124	2961.012
627.252	2976.600
627.380	3028.162
627.508	3019.725
627.637	3018.550
627.765	3050.100
627.893	3059.700
628.021	3047.912
628.149	3083.187
628.277	3105.437
628.405	3184.213
628.533	3100.650
628.662	3135.650
628.790	3145.088
628.918	3133.375
629.046	3145.350
629.174	3154.125
629.302	3259.287
629.430	3193.900
629.558	3208.350
629.687	3228.162
629.815	3221.600
629.943	3274.562
630.071	3289.975
630.199	3292.400
630.327	3300.588
630.455	3295.687
630.583	3379.900
630.712	3346.325
630.840	3382.450
630.968	3407.787
631.096	3380.262
631.224	3397.200
631.352	3404.787
631.480	3442.637
631.608	3434.113
631.737	3539.350
631.865	3619.575
631.993	3465.600
632.121	3588.937
632.249	3559.050
632.377	3577.825
632.505	3586.838
632.633	3523.662
632.762	3611.075
632.890	3662.812
633.018	3581.975
633.146	3668.550
633.274	3662.325
633.402	3640.400
633.530	3653.687
633.658	3784.562
633.787	3662.463
633.915	3751.375
634.043	3678.137
634.171	3709.437
634.299	3728.200
634.427	3813.512
634.555	3774.537
634.683	3747.900
634.812	3757.687
634.940	3785.988
635.068	3746.225
635.196	3799.025
635.324	3785.437
635.452	3878.213
635.580	3823.150
635.708	3812.262
635.837	3884.675
635.965	3846.975
636.093	3843.250
636.221	3854.125
636.349	3926.475
636.477	3832.713
636.605	3999.312
636.733	3822.375
636.862	3863.963
636.990	3891.637
637.118	3946.075
637.246	3893.775
637.374	3885.625
637.502	3926.425
637.630	3899.175
637.758	3919.525
637.887	3907.150
638.015	3895.912
638.143	3938.525
638.271	3964.937
638.399	3915.550
638.527	3937.175
638.655	3931.838
638.783	4082.012
638.912	4006.725
639.040	3980.400
639.168	4017.637
639.296	3980.088
639.424	4123.300
639.552	4004.463
639.680	4017.825
639.808	4058.600
639.937	4019.100
640.065	4030.963
640.193	4124.325
640.321	4048.650
640.449	4137.125
640.577	4145.500
640.705	4108.725
640.833	4200.738
640.962	4094.525
641.090	4099.775
641.218	4122.750
641.346	4148.712
641.474	4181.375
641.602	4149.450
641.730	4167.462
641.858	4188.137
641.987	4226.525
642.115	4184.812
642.243	4261.225
642.371	4253.250
642.499	4252.637
642.627	4304.350
642.755	4342.600
642.883	4333.462
643.012	4310.988
643.140	4286.988
643.268	4314.850
643.396	4362.913
643.524	4495.625
643.652	4368.600
643.780	4373.900
643.908	4386.462
644.037	4518.150
644.165	4387.312
644.293	4424.863
644.421	4410.900
644.549	4499.012
644.677	4467.525
644.805	4525.538
644.933	4462.250
645.062	4515.525
645.190	4513.363
645.318	4594.512
645.446	4549.750
645.574	4567.925
645.702	4564.663
645.830	4739.538
645.958	4565.137
646.087	4756.875
646.215	4587.425
646.343	4768.875
646.471	4683.613
646.599	4673.150
646.727	4668.025
646.855	4653.975
646.983	4687.587
647.112	4656.538
647.240	4855.675
647.368	4695.775
647.496	4754.712
647.624	4686.437
647.752	4700.212
647.880	4728.562
648.008	4732.613
648.137	4726.187
648.265	4722.825
648.393	4729.850
648.521	4758.488
648.649	4755.150
648.777	4787.300
648.905	4745.863
649.033	4783.150
649.162	4791.550
649.290	4786.800
649.418	4844.512
649.546	4823.775
649.674	4873.712
649.802	4818.250
649.930	4964.613
650.058	4766.238
650.187	4821.900
650.315	4798.275
650.443	4896.725
650.571	4828.587
650.699	4824.850
650.827	4805.700
650.955	4833.212
651.083	4841.163
651.212	4885.500
651.340	4911.625
651.468	4859.887
651.596	4843.525
651.724	4844.950
651.852	4855.875
651.980	4832.975
652.108	4926.900
652.237	4885.825
652.365	4954.800
652.493	4825.250
652.621	4858.262
652.749	4928.825
652.877	4847.275
653.005	4887.975
653.133	4848.887
653.262	4914.538
653.390	4848.075
653.518	5002.613
653.646	4896.337
653.774	5087.425
653.902	4921.775
654.030	4858.288
654.158	4901.587
654.287	4900.437
654.415	4936.163
654.543	4894.000
654.671	4949.750
654.799	4928.500
654.927	4873.613
655.055	4889.425
655.183	4936.100
655.312	4920.850
655.440	4957.875
655.568	4902.150
655.696	5012.850
655.824	5041.375
655.952	4954.413
656.080	4918.575
656.208	5086.650
656.337	4941.850
656.465	4960.475
656.593	4989.150
656.721	4958.750
656.849	5015.975
656.977	4964.937
657.105	4971.500
657.233	4938.025
657.362	4960.712
657.490	4971.937
657.618	4971.337
657.746	4976.150
657.874	4947.875
658.002	4931.400
658.130	4985.512
658.258	4947.363
658.387	4972.512
658.515	4963.288
658.643	5016.538
658.771	4964.663
658.899	5000.925
659.027	5018.175
659.155	5000.275
659.283	5168.062
659.412	5003.325
659.540	5119.875
659.668	4979.462
659.796	5041.212
659.924	5093.788
660.052	5001.187
660.180	5051.050
660.308	5042.100
660.437	5048.462
660.565	5012.788
660.693	5024.363
660.821	5000.137
660.949	5030.363
661.077	5023.962
661.205	5034.488
661.333	5020.275
661.462	5140.137
661.590	5071.225
661.718	5238.462
661.846	5150.125
661.974	5211.050
662.102	5082.738
662.230	5114.550
662.358	5078.663
662.487	5081.613
662.615	5065.175
662.743	5061.300
662.871	5078.050
662.999	5073.575
663.127	5050.200
663.255	5187.275
663.383	5195.212
663.512	5066.812
663.640	5103.762
663.768	5077.113
663.896	5085.475
664.024	5161.750
664.152	5092.663
664.280	5146.075
664.408	5123.712
664.537	5178.300
664.665	5069.613
664.793	5059.812
664.921	5113.312
665.049	5112.725
665.177	5136.725
665.305	5122.625
665.433	5155.187
665.562	5122.800
665.690	5151.625
665.818	5335.663
665.946	5169.025
666.074	5147.400
666.202	5126.937
666.330	5202.950
666.458	5157.012
666.587	5096.538
666.715	5147.187
666.843	5101.913
666.971	5092.775
667.099	5169.475
667.227	5133.663
667.355	5175.700
667.483	5145.450
667.612	5170.725
667.740	5178.975
667.868	5247.425
667.996	5157.212
668.124	5147.012
668.252	5127.875
668.380	5117.413
668.508	5162.738
668.637	5173.450
668.765	5166.650
668.893	5222.200
669.021	5134.450
669.149	5200.887
669.277	5222.837
669.405	5145.212
669.533	5182.038
669.662	5399.413
669.790	5182.387
669.918	5231.587
670.046	5162.500
670.174	5252.637
670.302	5218.488
670.430	5196.312
670.558	5228.712
670.687	5162.413
670.815	5323.288
670.943	5087.137
671.071	5129.288
671.199	5168.437
671.327	5118.875
671.455	5155.437
671.583	5126.575
671.712	5287.150
671.840	5141.325
671.968	5096.038
672.096	5120.050
672.224	5091.850
672.352	5286.863
672.480	5094.437
672.608	5055.512
672.737	5082.788
672.865	5219.387
672.993	5088.613
673.121	5018.525
673.249	5035.937
673.377	5021.312
673.505	5054.700
673.633	5055.212
673.762	4998.550
673.890	5029.012
674.018	5244.488
674.146	5033.375
674.274	5046.887
674.402	5201.137
674.530	5024.437
674.658	5022.250
674.787	4970.625
674.915	4945.087
675.043	5043.550
675.171	5033.937
675.299	4970.725
675.427	5003.725
675.555	4954.637
675.683	4948.562
675.812	4941.738
675.940	4988.550
676.068	4942.788
676.196	4944.150
676.324	4927.475
676.452	4991.863
676.580	4911.450
676.708	4976.187
676.837	4983.200
676.965	4873.262
677.093	4896.850
677.221	4866.800
677.349	4919.937
677.477	4960.275
677.605	4886.212
677.733	4947.488
677.862	4838.937
677.990	4824.300
678.118	4794.100
678.246	4823.025
678.374	4803.312
678.502	4788.212
678.630	4750.950
678.758	4717.975
678.887	4769.125
679.015	4765.825
679.143	4748.012
679.271	4745.050
679.399	4770.425
679.527	4778.637
679.655	4716.425
679.783	4765.800
679.912	4747.275
680.040	4728.762
680.168	4726.288
680.296	4731.600
680.424	4675.062
680.552	4705.525
680.680	4780.187
680.808	4670.387
680.937	4660.375
681.065	4651.125
681.193	4641.363
681.321	4626.812
681.449	4627.275
681.577	4633.413
681.705	4642.212
681.833	4589.375
681.962	4608.250
682.090	4756.437
682.218	4574.750
682.346	4577.050
682.474	4631.512
682.602	4565.800
682.730	4583.200
682.858	4570.900
682.987	4627.775
683.115	4603.475
683.243	4565.200
683.371	4540.000
683.499	4522.762
683.627	4610.187
683.755	4599.475
683.883	4695.488
684.012	4542.387
684.140	4535.988
684.268	4523.375
684.396	4546.038
684.524	4556.825
684.652	4575.500
684.780	4586.875
684.908	4582.413
685.037	4493.725
685.165	4464.050
685.293	4507.525
685.421	4583.587
685.549	4479.163
685.677	4462.962
685.805	4622.625
685.933	4528.800
686.062	4449.988
686.190	4439.250
686.318	4512.187
686.446	4453.925
686.574	4447.875
686.702	4535.363
686.830	4425.163
686.958	4405.863
687.087	4423.475
687.215	4453.337
687.343	4403.275
687.471	4422.025
687.599	4412.375
687.727	4566.825
687.855	4425.337
687.983	4422.363
688.112	4494.425
688.240	4367.887
688.368	4348.825
688.496	4385.500
688.624	4440.663
688.752	4312.512
688.880	4349.025
689.008	4339.913
689.137	4343.212
689.265	4278.663
689.393	4297.613
689.521	4297.012
689.649	4277.275
689.777	4250.762
689.905	4250.775
690.033	4266.200
690.162	4248.000
690.290	4243.212
690.418	4238.288
690.546	4255.500
690.674	4325.462
690.802	4186.825
690.930	4216.212
691.058	4228.750
691.187	4202.000
691.315	4165.937
691.443	4228.300
691.571	4134.575
691.699	4167.837
691.827	4200.975
691.955	4106.488
692.083	4093.500
692.212	4237.363
692.340	4090.950
692.468	4074.262
692.596	4104.125
692.724	4172.150
692.852	4051.738
692.980	4090.050
693.108	4038.600
693.237	3990.350
693.365	3988.450
693.493	3982.675
693.621	3952.850
693.749	3958.838
693.877	3938.738
694.005	4034.325
694.133	3927.937
694.262	3944.875
694.390	3863.425
694.518	3880.625
694.646	3876.425
694.774	3851.350
694.902	3954.725
695.030	3901.463
695.158	3826.912
695.287	3788.338
695.415	3769.775
695.543	3791.325
695.671	3850.387
695.799	3762.238
695.927	3782.713
696.055	3755.950
696.183	3750.400
696.312	3706.150
696.440	3881.687
696.568	3751.450
696.696	3711.200
696.824	3624.500
696.952	3646.675
697.080	3639.762
697.208	3605.375
697.337	3674.637
697.465	3596.100
697.593	3562.625
697.721	3547.650
697.849	3562.463
697.977	3571.275
698.105	3571.300
698.233	3508.537
698.362	3496.900
698.490	3498.225
698.618	3485.412
698.746	3572.488
698.874	3461.537
699.002	3607.600
699.130	3440.075
699.258	3478.425
699.387	3384.363
699.515	3421.463
699.643	3403.400
699.771	3411.037
699.899	3357.312
700.027	3391.187
700.155	3332.287
700.283	3340.925
700.412	3338.650
700.540	3344.475
700.668	3357.088
700.796	3270.137
700.924	3264.113
701.052	3260.075
701.180	3390.338
701.308	3296.238
701.437	3192.425
701.565	3199.463
701.693	3173.025
701.821	3179.200
701.949	3167.037
702.077	3176.250
702.205	3121.875
702.333	3119.088
702.462	3099.812
702.590	3126.762
702.718	3099.050
702.846	3066.375
702.974	3062.450
703.102	3044.662
703.230	3132.037
703.358	3103.075
703.487	3004.550
703.615	3195.838
703.743	2988.425
703.871	2964.425
703.999	3008.100
704.127	3053.150
704.255	2896.425
704.383	3105.150
704.512	2909.213
704.640	2908.975
704.768	2845.713
704.896	2918.387
705.024	2849.000
705.152	2929.488
705.280	2828.550
705.408	2806.363
705.537	2801.025
705.665	2751.838
705.793	2758.738
705.921	2719.213
706.049	2755.500
706.177	2717.988
706.305	2708.800
706.433	2810.425
706.562	2696.250
706.690	2675.338
706.818	2647.613
706.946	2805.025
707.074	2650.488
707.202	2614.450
707.330	2650.687
707.458	2590.988
707.587	2589.088
707.715	2579.350
707.843	2621.662
707.971	2596.725
708.099	2628.812
708.227	2542.950
708.355	2541.200
708.483	2533.963
708.612	2523.775
708.740	2541.238
708.868	2540.312
708.996	2497.137
709.124	2487.213
709.252	2476.037
709.380	2479.675
709.508	2460.875
709.637	2453.800
709.765	2436.887
709.893	2418.613
710.021	2420.400
710.149	2396.512
710.277	2420.762
710.405	2409.125
710.533	2389.262
710.662	2365.625
710.790	2370.300
710.918	2353.875
711.046	2346.850
711.174	2324.387
711.302	2313.700
711.430	2293.287
711.558	2300.175
711.687	2273.950
711.815	2274.075
711.943	2273.750
712.071	2263.200
712.199	2252.625
712.327	2230.738
712.455	2219.912
712.583	2218.575
712.712	2233.387
712.840	2188.275
712.968	2173.262
713.096	2184.537
713.224	2180.137
713.352	2166.113
713.480	2131.613
713.608	2131.963
713.737	2120.425
713.865	2099.900
713.993	2081.863
714.121	2067.000
714.249	2069.925
714.377	2061.875
714.505	2076.437
714.633	2042.237
714.762	2023.175
714.890	2021.400
715.018	2003.075
715.146	1986.912
715.274	1978.375
715.402	1973.912
715.530	1977.412
715.658	1955.425
715.787	1961.237
715.915	1944.763
716.043	1916.425
716.171	1943.062
716.299	1957.300
716.427	1909.825
716.555	1897.050
716.683	1877.812
716.812	1877.175
716.940	1867.487
717.068	1834.513
717.196	1845.200
717.324	1840.250
717.452	1829.612
717.580	1812.575
717.708	1794.662
717.837	1809.912
717.965	1792.250
718.093	1773.675
718.221	1750.750
718.349	1760.412
718.477	1748.950
718.605	1727.037
718.733	1736.175
718.862	1713.687
718.990	1705.987
719.118	1698.588
719.246	1677.088
719.374	1672.862
719.502	1677.987
719.630	1673.300
719.758	1658.562
719.887	1636.937
720.015	1629.437
720.143	1628.338
720.271	1604.050
720.399	1601.875
720.527	1591.925
720.655	1583.612
720.783	1573.025
720.912	1572.800
721.040	1574.250
721.168	1539.263
721.296	1545.513
721.424	1538.713
721.552	1525.937
721.680	1511.900
721.808	1505.713
721.937	1497.075
722.065	1473.787
722.193	1461.625
722.321	1474.237
722.449	1471.325
722.577	1453.350
722.705	1437.700
722.833	1422.450
722.962	1432.888
723.090	1400.400
723.218	1398.550
723.346	1386.975
723.474	1391.437
723.602	1386.100
723.730	1368.912
723.858	1376.875
723.987	1366.175
724.115	1341.100
724.243	1335.250
724.371	1340.612
724.499	1337.450
724.627	1324.850
724.755	1313.987
724.883	1316.475
725.012	1288.763
725.140	1274.737
725.268	1269.263
725.396	1267.950
725.524	1248.138
725.652	1250.575
725.780	1240.050
725.908	1233.250
726.037	1229.312
726.165	1209.838
726.293	1203.775
726.421	1198.025
726.549	1204.787
726.677	1182.737
726.805	1200.963
726.933	1174.463
727.062	1161.088
727.190	1155.562
727.318	1156.162
727.446	1156.250
727.574	1139.925
727.702	1129.787
727.830	1121.088
727.958	1113.100
728.087	1117.088
728.215	1108.263
728.343	1097.963
728.471	1098.075
728.599	1067.763
728.727	1075.000
728.855	1079.213
728.983	1056.975
729.112	1051.050
729.240	1048.700
729.368	1034.388
729.496	1034.362
729.624	1041.075
729.752	1013.775
729.880	1021.212
730.008	1013.775
730.137	1003.712
730.265	1000.862
730.393	998.237
730.521	986.525
730.649	975.513
730.777	981.612
730.905	958.737
731.033	969.175
731.162	956.350
731.290	952.700
731.418	945.937
731.546	965.962
731.674	926.612
731.802	923.163
731.930	921.775
732.058	921.150
732.187	923.513
732.315	902.413
732.443	906.812
732.571	891.687
732.699	887.712
732.827	874.413
732.955	869.538
733.083	861.950
733.212	862.312
733.340	868.138
733.468	857.138
733.596	849.950
733.724	852.775
733.852	842.825
733.980	832.138
734.108	836.325
734.237	841.975
734.365	821.087
734.493	828.538
734.621	818.138
734.749	821.712
734.877	812.475
735.005	799.062
735.133	798.400
735.262	799.862
735.390	786.050
