sample5_PS_at_750.00nm_cut_at_1008.00Y_01.dat
15.05.2023
11:01:42
cut middle at Y: 1008.00
top cursor: 1048 down cursor: 968 mean of: 80 lines , 2560 datapoints
wavelength(nm)	intensity[arb. units]
585.996	1366.237
586.124	1338.825
586.252	1332.550
586.380	1325.900
586.508	1326.838
586.637	1336.850
586.765	1338.562
586.893	1339.975
587.021	1348.550
587.149	1354.750
587.277	1350.075
587.405	1356.875
587.533	1335.175
587.662	1357.375
587.790	1363.875
587.918	1356.075
588.046	1371.550
588.174	1362.737
588.302	1386.312
588.430	1364.625
588.558	1382.825
588.687	1371.700
588.815	1405.713
588.943	1385.275
589.071	1380.187
589.199	1394.912
589.327	1390.900
589.455	1375.338
589.583	1385.687
589.712	1400.412
589.840	1396.050
589.968	1379.513
590.096	1401.838
590.224	1402.300
590.352	1392.850
590.480	1400.912
590.608	1396.013
590.737	1394.037
590.865	1393.937
590.993	1407.987
591.121	1396.713
591.249	1418.862
591.377	1410.287
591.505	1404.100
591.633	1407.612
591.762	1411.912
591.890	1428.487
592.018	1416.125
592.146	1420.112
592.274	1434.463
592.402	1420.200
592.530	1427.625
592.658	1430.375
592.787	1433.450
592.915	1423.400
593.043	1450.750
593.171	1443.275
593.299	1468.700
593.427	1449.088
593.555	1452.088
593.683	1446.175
593.812	1449.150
593.940	1479.850
594.068	1472.200
594.196	1495.763
594.324	1473.575
594.452	1503.775
594.580	1511.175
594.708	1496.312
594.837	1505.812
594.965	1510.763
595.093	1516.412
595.221	1522.125
595.349	1532.713
595.477	1526.963
595.605	1525.862
595.733	1558.825
595.862	1541.213
595.990	1546.100
596.118	1558.400
596.246	1556.050
596.374	1568.475
596.502	1591.625
596.630	1584.162
596.758	1592.875
596.887	1588.562
597.015	1616.088
597.143	1579.437
597.271	1603.925
597.399	1616.825
597.527	1626.937
597.655	1616.200
597.783	1634.588
597.912	1605.537
598.040	1618.350
598.168	1629.950
598.296	1634.037
598.424	1634.638
598.552	1626.763
598.680	1627.975
598.808	1618.600
598.937	1644.925
599.065	1632.312
599.193	1639.600
599.321	1620.125
599.449	1665.175
599.577	1637.987
599.705	1634.162
599.833	1634.550
599.962	1628.425
600.090	1633.800
600.218	1655.888
600.346	1661.975
600.474	1661.000
600.602	1668.888
600.730	1674.150
600.858	1686.513
600.987	1668.412
601.115	1679.388
601.243	1678.625
601.371	1699.213
601.499	1696.150
601.627	1687.825
601.755	1723.775
601.883	1717.050
602.012	1733.150
602.140	1721.800
602.268	1735.675
602.396	1743.350
602.524	1744.200
602.652	1751.937
602.780	1761.963
602.908	1774.937
603.037	1782.100
603.165	1805.500
603.293	1806.175
603.421	1822.750
603.549	1806.963
603.677	1856.862
603.805	1831.150
603.933	1862.500
604.062	1854.888
604.190	1878.487
604.318	1869.937
604.446	1901.050
604.574	1896.737
604.702	1907.487
604.830	1918.237
604.958	1934.713
605.087	1961.088
605.215	1955.713
605.343	1966.550
605.471	1983.862
605.599	1998.088
605.727	1996.050
605.855	2017.162
605.983	1997.662
606.112	2035.050
606.240	2043.287
606.368	2062.650
606.496	2072.675
606.624	2048.887
606.752	2074.375
606.880	2071.762
607.008	2108.312
607.137	2097.600
607.265	2121.800
607.393	2132.450
607.521	2136.875
607.649	2123.375
607.777	2112.000
607.905	2138.950
608.033	2150.037
608.162	2153.762
608.290	2142.562
608.418	2178.525
608.546	2155.488
608.674	2197.037
608.802	2166.900
608.930	2190.300
609.058	2187.500
609.187	2183.075
609.315	2202.075
609.443	2199.213
609.571	2228.725
609.699	2218.762
609.827	2210.213
609.955	2226.300
610.083	2224.975
610.212	2227.338
610.340	2215.812
610.468	2251.588
610.596	2273.400
610.724	2249.637
610.852	2263.937
610.980	2261.850
611.108	2270.700
611.237	2259.012
611.365	2274.713
611.493	2263.650
611.621	2298.988
611.749	2316.175
611.877	2319.363
612.005	2308.762
612.133	2309.338
612.262	2318.350
612.390	2336.437
612.518	2347.562
612.646	2358.850
612.774	2349.750
612.902	2371.762
613.030	2376.613
613.158	2409.550
613.287	2436.912
613.415	2410.662
613.543	2435.062
613.671	2425.162
613.799	2453.050
613.927	2446.387
614.055	2444.662
614.183	2526.175
614.312	2470.387
614.440	2515.262
614.568	2479.025
614.696	2494.012
614.824	2576.437
614.952	2530.863
615.080	2526.613
615.208	2569.762
615.337	2558.762
615.465	2565.000
615.593	2581.125
615.721	2632.625
615.849	2655.213
615.977	2646.475
616.105	2661.300
616.233	2634.562
616.362	2715.525
616.490	2641.562
616.618	2662.012
616.746	2717.588
616.874	2770.100
617.002	2719.425
617.130	2781.200
617.258	2863.662
617.387	2764.425
617.515	2775.475
617.643	2805.775
617.771	2836.825
617.899	2834.350
618.027	2797.050
618.155	2920.437
618.283	2837.738
618.412	2836.162
618.540	2928.825
618.668	2883.412
618.796	2888.762
618.924	3015.425
619.052	2909.500
619.180	2904.887
619.308	2953.912
619.437	2960.725
619.565	2961.550
619.693	2934.125
619.821	2983.125
619.949	2972.187
620.077	3031.613
620.205	3032.338
620.333	3033.537
620.462	3079.750
620.590	3116.800
620.718	3042.912
620.846	3159.637
620.974	3151.838
621.102	3112.812
621.230	3056.625
621.358	3225.012
621.487	3103.088
621.615	3131.662
621.743	3175.562
621.871	3160.137
621.999	3226.537
622.127	3154.900
622.255	3212.387
622.383	3188.375
622.512	3200.238
622.640	3339.963
622.768	3173.950
622.896	3205.088
623.024	3209.287
623.152	3313.238
623.280	3306.950
623.408	3238.387
623.537	3272.412
623.665	3252.300
623.793	3317.812
623.921	3258.637
624.049	3280.338
624.177	3300.613
624.305	3351.713
624.433	3347.062
624.562	3333.950
624.690	3360.700
624.818	3419.512
624.946	3529.187
625.074	3413.450
625.202	3367.750
625.330	3348.250
625.458	3463.475
625.587	3397.187
625.715	3481.750
625.843	3546.200
625.971	3455.512
626.099	3443.762
626.227	3454.575
626.355	3443.162
626.483	3558.287
626.612	3484.213
626.740	3477.500
626.868	3524.675
626.996	3485.512
627.124	3501.062
627.252	3500.687
627.380	3575.400
627.508	3567.812
627.637	3524.550
627.765	3569.488
627.893	3590.637
628.021	3581.713
628.149	3635.300
628.277	3646.900
628.405	3717.738
628.533	3614.150
628.662	3708.812
628.790	3659.900
628.918	3678.637
629.046	3691.875
629.174	3703.262
629.302	3824.300
629.430	3718.863
629.558	3764.037
629.687	3758.950
629.815	3805.463
629.943	3822.075
630.071	3820.025
630.199	3854.963
630.327	3861.412
630.455	3819.537
630.583	3943.863
630.712	3903.925
630.840	3911.525
630.968	3986.213
631.096	3924.200
631.224	3924.000
631.352	3955.500
631.480	4003.225
631.608	3971.250
631.737	4093.363
631.865	4198.925
631.993	4032.687
632.121	4157.775
632.249	4151.137
632.377	4153.712
632.505	4162.950
632.633	4077.500
632.762	4158.650
632.890	4260.600
633.018	4103.887
633.146	4214.575
633.274	4216.562
633.402	4217.788
633.530	4151.212
633.658	4334.900
633.787	4195.100
633.915	4295.913
634.043	4261.050
634.171	4248.100
634.299	4256.687
634.427	4375.863
634.555	4290.125
634.683	4275.163
634.812	4267.800
634.940	4304.937
635.068	4244.087
635.196	4327.137
635.324	4331.600
635.452	4403.238
635.580	4316.187
635.708	4334.400
635.837	4387.538
635.965	4400.937
636.093	4354.538
636.221	4318.587
636.349	4456.225
636.477	4316.050
636.605	4509.525
636.733	4307.000
636.862	4372.225
636.990	4382.462
637.118	4462.725
637.246	4409.488
637.374	4363.125
637.502	4377.238
637.630	4345.825
637.758	4385.550
637.887	4369.425
638.015	4370.700
638.143	4358.850
638.271	4394.400
638.399	4380.637
638.527	4361.800
638.655	4344.250
638.783	4531.825
638.912	4406.337
639.040	4395.400
639.168	4445.913
639.296	4392.212
639.424	4517.587
639.552	4379.350
639.680	4432.750
639.808	4453.200
639.937	4379.475
640.065	4388.650
640.193	4485.725
640.321	4381.400
640.449	4452.025
640.577	4519.312
640.705	4446.450
640.833	4542.775
640.962	4402.000
641.090	4398.475
641.218	4422.225
641.346	4438.325
641.474	4488.163
641.602	4442.137
641.730	4435.500
641.858	4448.113
641.987	4509.262
642.115	4433.887
642.243	4528.700
642.371	4500.050
642.499	4493.312
642.627	4517.462
642.755	4579.837
642.883	4587.988
643.012	4542.625
643.140	4465.200
643.268	4539.587
643.396	4537.350
643.524	4675.250
643.652	4526.663
643.780	4547.925
643.908	4543.375
644.037	4727.962
644.165	4561.837
644.293	4587.425
644.421	4548.413
644.549	4667.975
644.677	4588.038
644.805	4653.187
644.933	4559.875
645.062	4601.812
645.190	4625.937
645.318	4695.000
645.446	4636.325
645.574	4658.887
645.702	4624.125
645.830	4778.400
645.958	4619.062
646.087	4814.262
646.215	4635.262
646.343	4805.887
646.471	4717.500
646.599	4722.775
646.727	4643.325
646.855	4693.988
646.983	4684.387
647.112	4624.113
647.240	4833.337
647.368	4678.163
647.496	4729.538
647.624	4640.200
647.752	4636.312
647.880	4653.575
648.008	4650.163
648.137	4654.637
648.265	4609.488
648.393	4650.500
648.521	4664.738
648.649	4664.712
648.777	4656.913
648.905	4644.725
649.033	4662.988
649.162	4654.462
649.290	4631.613
649.418	4691.125
649.546	4653.937
649.674	4711.012
649.802	4628.675
649.930	4772.863
650.058	4578.712
650.187	4625.163
650.315	4584.350
650.443	4661.025
650.571	4591.937
650.699	4566.238
650.827	4534.375
650.955	4585.875
651.083	4560.625
651.212	4623.988
651.340	4631.500
651.468	4566.275
651.596	4554.200
651.724	4541.725
651.852	4528.425
651.980	4481.350
652.108	4612.163
652.237	4539.913
652.365	4619.712
652.493	4469.262
652.621	4473.400
652.749	4547.387
652.877	4437.613
653.005	4504.000
653.133	4426.225
653.262	4488.050
653.390	4411.512
653.518	4542.113
653.646	4424.137
653.774	4598.238
653.902	4442.762
654.030	4366.100
654.158	4387.575
654.287	4364.113
654.415	4417.625
654.543	4401.387
654.671	4446.288
654.799	4376.225
654.927	4337.050
655.055	4327.113
655.183	4343.262
655.312	4313.050
655.440	4350.337
655.568	4302.275
655.696	4384.875
655.824	4401.238
655.952	4288.887
656.080	4240.700
656.208	4425.750
656.337	4279.962
656.465	4270.762
656.593	4308.988
656.721	4243.450
656.849	4304.163
656.977	4223.937
657.105	4219.288
657.233	4179.250
657.362	4192.750
657.490	4185.625
657.618	4175.238
657.746	4151.387
657.874	4153.600
658.002	4117.000
658.130	4145.812
658.258	4101.700
658.387	4123.400
658.515	4098.700
658.643	4143.350
658.771	4095.250
658.899	4072.225
659.027	4092.275
659.155	4074.275
659.283	4242.788
659.412	4053.300
659.540	4149.100
659.668	4027.175
659.796	4046.137
659.924	4081.713
660.052	4014.450
660.180	4042.187
660.308	4012.088
660.437	4012.463
660.565	3984.412
660.693	3966.762
660.821	3949.325
660.949	3958.537
661.077	3943.525
661.205	3927.125
661.333	3895.262
661.462	4005.162
661.590	3927.338
661.718	4080.000
661.846	3991.912
661.974	4039.900
662.102	3912.562
662.230	3896.775
662.358	3872.550
662.487	3862.812
662.615	3823.025
662.743	3799.162
662.871	3812.437
662.999	3799.662
663.127	3806.713
663.255	3886.887
663.383	3876.225
663.512	3762.175
663.640	3808.137
663.768	3733.537
663.896	3767.937
664.024	3783.488
664.152	3753.387
664.280	3763.387
664.408	3737.287
664.537	3786.500
664.665	3667.300
664.793	3653.287
664.921	3678.012
665.049	3712.787
665.177	3702.000
665.305	3691.838
665.433	3664.175
665.562	3631.338
665.690	3664.187
665.818	3819.662
665.946	3653.050
666.074	3611.287
666.202	3615.125
666.330	3645.387
666.458	3634.900
666.587	3549.475
666.715	3590.175
666.843	3543.725
666.971	3518.925
667.099	3585.088
667.227	3542.650
667.355	3565.950
667.483	3542.825
667.612	3538.175
667.740	3545.525
667.868	3596.125
667.996	3515.350
668.124	3487.512
668.252	3477.650
668.380	3461.687
668.508	3480.725
668.637	3457.700
668.765	3443.900
668.893	3474.912
669.021	3421.150
669.149	3484.875
669.277	3478.900
669.405	3387.725
669.533	3393.887
669.662	3655.300
669.790	3374.475
669.918	3460.588
670.046	3358.225
670.174	3430.950
670.302	3416.100
670.430	3375.437
670.558	3408.050
670.687	3318.225
670.815	3478.000
670.943	3269.675
671.071	3280.187
671.199	3313.887
671.327	3266.963
671.455	3284.338
671.583	3251.975
671.712	3405.850
671.840	3244.912
671.968	3215.137
672.096	3207.588
672.224	3203.475
672.352	3356.000
672.480	3188.325
672.608	3154.000
672.737	3149.963
672.865	3338.537
672.993	3149.350
673.121	3098.350
673.249	3106.238
673.377	3078.925
673.505	3068.550
673.633	3075.800
673.762	3027.050
673.890	3057.450
674.018	3271.012
674.146	3048.838
674.274	3036.838
674.402	3210.025
674.530	3031.075
674.658	3023.613
674.787	2953.125
674.915	2940.262
675.043	3005.512
675.171	2987.275
675.299	2914.025
675.427	2959.512
675.555	2888.338
675.683	2894.525
675.812	2895.450
675.940	2878.863
676.068	2892.425
676.196	2846.350
676.324	2883.125
676.452	2882.600
676.580	2847.975
676.708	2856.637
676.837	2900.775
676.965	2787.187
677.093	2790.900
677.221	2768.050
677.349	2797.800
677.477	2837.700
677.605	2765.425
677.733	2791.400
677.862	2699.175
677.990	2708.613
678.118	2680.125
678.246	2729.162
678.374	2694.325
678.502	2657.363
678.630	2630.162
678.758	2645.800
678.887	2666.562
679.015	2629.875
679.143	2626.775
679.271	2632.637
679.399	2625.200
679.527	2619.125
679.655	2594.950
679.783	2606.012
679.912	2603.125
680.040	2600.262
680.168	2579.775
680.296	2562.275
680.424	2553.525
680.552	2553.750
680.680	2592.863
680.808	2534.700
680.937	2533.613
681.065	2531.887
681.193	2531.675
681.321	2531.825
681.449	2496.387
681.577	2490.963
681.705	2500.037
681.833	2479.000
681.962	2458.275
682.090	2519.287
682.218	2441.750
682.346	2432.713
682.474	2450.787
682.602	2460.687
682.730	2447.725
682.858	2405.625
682.987	2434.488
683.115	2401.687
683.243	2408.637
683.371	2394.588
683.499	2386.275
683.627	2408.550
683.755	2379.113
683.883	2379.075
684.012	2354.025
684.140	2355.475
684.268	2341.700
684.396	2348.338
684.524	2352.262
684.652	2356.912
684.780	2363.725
684.908	2319.150
685.037	2317.425
685.165	2328.012
685.293	2323.500
685.421	2310.800
685.549	2289.975
685.677	2293.863
685.805	2287.912
685.933	2295.588
686.062	2269.800
686.190	2263.537
686.318	2276.512
686.446	2264.937
686.574	2248.000
686.702	2266.812
686.830	2261.050
686.958	2227.363
687.087	2205.412
687.215	2202.287
687.343	2219.425
687.471	2204.600
687.599	2182.075
687.727	2204.787
687.855	2202.988
687.983	2194.275
688.112	2191.975
688.240	2158.050
688.368	2157.075
688.496	2177.325
688.624	2160.562
688.752	2139.988
688.880	2141.912
689.008	2122.000
689.137	2136.450
689.265	2125.838
689.393	2107.787
689.521	2097.925
689.649	2111.512
689.777	2091.575
689.905	2083.287
690.033	2092.338
690.162	2077.250
690.290	2062.825
690.418	2058.175
690.546	2089.537
690.674	2073.150
690.802	2046.912
690.930	2033.812
691.058	2028.175
691.187	2006.575
691.315	2031.088
691.443	2015.725
691.571	2011.650
691.699	1987.437
691.827	1998.875
691.955	1980.325
692.083	1971.925
692.212	1962.875
692.340	1989.588
692.468	1972.463
692.596	1935.562
692.724	1946.513
692.852	1927.025
692.980	1931.100
693.108	1914.463
693.237	1914.900
693.365	1900.888
693.493	1892.750
693.621	1884.037
693.749	1870.237
693.877	1866.975
694.005	1855.250
694.133	1874.350
694.262	1849.338
694.390	1844.850
694.518	1826.338
694.646	1822.487
694.774	1822.675
694.902	1817.937
695.030	1827.875
695.158	1801.225
695.287	1811.100
695.415	1780.838
695.543	1777.888
695.671	1762.425
695.799	1752.687
695.927	1751.237
696.055	1757.562
696.183	1779.375
696.312	1744.450
696.440	1736.937
696.568	1728.175
696.696	1710.400
696.824	1708.213
696.952	1701.525
697.080	1686.588
697.208	1709.275
697.337	1665.225
697.465	1665.550
697.593	1664.037
697.721	1668.162
697.849	1652.500
697.977	1643.400
698.105	1656.225
698.233	1630.388
698.362	1629.312
698.490	1625.925
698.618	1627.638
698.746	1623.550
698.874	1621.900
699.002	1606.050
699.130	1603.687
699.258	1604.575
699.387	1579.600
699.515	1574.875
699.643	1581.312
699.771	1591.088
699.899	1570.025
700.027	1579.375
700.155	1565.875
700.283	1548.675
700.412	1546.900
700.540	1538.975
700.668	1524.800
700.796	1531.662
700.924	1519.687
701.052	1521.150
701.180	1513.388
701.308	1504.338
701.437	1487.675
701.565	1486.050
701.693	1489.825
701.821	1506.150
701.949	1479.312
702.077	1459.075
702.205	1462.450
702.333	1471.150
702.462	1461.425
702.590	1446.325
702.718	1460.950
702.846	1432.650
702.974	1441.463
703.102	1436.937
703.230	1437.850
703.358	1411.175
703.487	1395.725
703.615	1402.950
703.743	1388.850
703.871	1412.138
703.999	1378.125
704.127	1377.662
704.255	1368.775
704.383	1377.088
704.512	1359.125
704.640	1355.112
704.768	1345.812
704.896	1357.875
705.024	1350.062
705.152	1341.612
705.280	1334.912
705.408	1318.600
705.537	1317.713
705.665	1319.550
705.793	1307.987
705.921	1312.875
706.049	1317.812
706.177	1291.125
706.305	1293.937
706.433	1296.562
706.562	1287.388
706.690	1280.650
706.818	1263.725
706.946	1272.975
707.074	1251.513
707.202	1257.150
707.330	1249.550
707.458	1247.900
707.587	1233.675
707.715	1237.550
707.843	1225.888
707.971	1231.300
708.099	1215.763
708.227	1195.412
708.355	1204.338
708.483	1205.437
708.612	1208.537
708.740	1200.388
708.868	1186.700
708.996	1194.650
709.124	1201.062
709.252	1170.600
709.380	1179.888
709.508	1160.500
709.637	1162.425
709.765	1155.937
709.893	1148.775
710.021	1161.650
710.149	1148.325
710.277	1155.662
710.405	1143.013
710.533	1129.463
710.662	1130.513
710.790	1133.250
710.918	1116.763
711.046	1121.850
711.174	1130.000
711.302	1107.975
711.430	1106.588
711.558	1113.338
711.687	1108.475
711.815	1102.600
711.943	1099.325
712.071	1089.237
712.199	1084.500
712.327	1072.950
712.455	1078.037
712.583	1073.562
712.712	1090.812
712.840	1075.025
712.968	1070.400
713.096	1075.000
713.224	1063.875
713.352	1053.550
713.480	1047.000
713.608	1045.575
713.737	1033.388
713.865	1038.150
713.993	1034.162
714.121	1035.888
714.249	1030.237
714.377	1024.475
714.505	1027.362
714.633	1014.837
714.762	1013.600
714.890	1017.513
715.018	1005.725
715.146	997.725
715.274	998.737
715.402	992.812
715.530	1003.612
715.658	984.900
715.787	989.413
715.915	987.875
716.043	981.612
716.171	988.663
716.299	994.437
716.427	968.962
716.555	969.725
716.683	962.812
716.812	962.675
716.940	970.462
717.068	954.950
717.196	947.937
717.324	944.800
717.452	944.562
717.580	944.913
717.708	935.138
717.837	942.500
717.965	935.562
718.093	931.562
718.221	926.225
718.349	922.937
718.477	923.275
718.605	914.725
718.733	913.263
718.862	905.050
718.990	903.425
719.118	904.475
719.246	897.175
719.374	895.913
719.502	911.075
719.630	901.638
719.758	888.437
719.887	890.300
720.015	892.888
720.143	884.375
720.271	879.587
720.399	871.825
720.527	873.650
720.655	869.000
720.783	870.800
720.912	863.237
721.040	871.212
721.168	855.325
721.296	856.175
721.424	851.038
721.552	850.638
721.680	846.038
721.808	848.187
721.937	846.263
722.065	829.475
722.193	824.138
722.321	841.587
722.449	817.100
722.577	833.062
722.705	813.763
722.833	802.900
722.962	817.700
723.090	806.237
723.218	808.388
723.346	799.450
723.474	808.475
723.602	807.875
723.730	789.075
723.858	800.062
723.987	796.312
724.115	791.050
724.243	781.062
724.371	778.437
724.499	787.650
724.627	780.712
724.755	773.513
724.883	773.325
725.012	770.050
725.140	761.950
725.268	765.362
725.396	762.200
725.524	750.700
725.652	753.025
725.780	749.275
725.908	744.513
726.037	747.900
726.165	740.538
726.293	736.075
726.421	729.550
726.549	737.275
726.677	722.638
726.805	729.650
726.933	725.375
727.062	716.362
727.190	717.150
727.318	716.288
727.446	719.237
727.574	716.375
727.702	715.187
727.830	699.163
727.958	703.737
728.087	704.737
728.215	702.388
728.343	689.962
728.471	698.937
728.599	682.700
728.727	688.263
728.855	689.525
728.983	678.475
729.112	677.150
729.240	672.400
729.368	667.763
729.496	667.625
729.624	674.500
729.752	663.062
729.880	670.337
730.008	673.862
730.137	656.638
730.265	653.237
730.393	652.325
730.521	650.575
730.649	649.538
730.777	648.450
730.905	644.763
731.033	645.612
731.162	639.913
731.290	648.750
731.418	638.538
731.546	656.163
731.674	625.425
731.802	637.175
731.930	642.362
732.058	630.875
732.187	631.700
732.315	622.500
732.443	623.050
732.571	611.312
732.699	606.913
732.827	609.675
732.955	609.750
733.083	595.250
733.212	604.288
733.340	602.250
733.468	602.638
733.596	597.300
733.724	593.212
733.852	599.400
733.980	589.275
734.108	592.712
734.237	602.413
734.365	588.375
734.493	593.712
734.621	582.538
734.749	591.400
734.877	578.288
735.005	579.025
735.133	575.725
735.262	579.300
735.390	575.763
735.518	562.375
735.646	554.450
735.774	563.775
735.902	564.700
736.030	564.425
736.158	567.725
736.287	560.250
