sample3_PS_at_750.00nm_cut_at_1008.00Y_01.dat
15.05.2023
10:57:36
cut middle at Y: 1008.00
top cursor: 1048 down cursor: 968 mean of: 80 lines , 2560 datapoints
wavelength(nm)	intensity[arb. units]
585.996	1218.400
586.124	1200.300
586.252	1185.050
586.380	1188.312
586.508	1179.875
586.637	1198.400
586.765	1189.312
586.893	1196.050
587.021	1203.675
587.149	1208.838
587.277	1215.763
587.405	1221.000
587.533	1212.875
587.662	1216.562
587.790	1232.475
587.918	1237.625
588.046	1235.875
588.174	1210.562
588.302	1239.100
588.430	1244.875
588.558	1239.950
588.687	1245.750
588.815	1274.888
588.943	1251.463
589.071	1255.687
589.199	1263.062
589.327	1246.037
589.455	1242.487
589.583	1263.912
589.712	1265.275
589.840	1259.825
589.968	1247.062
590.096	1269.437
590.224	1275.450
590.352	1260.437
590.480	1266.750
590.608	1286.937
590.737	1258.450
590.865	1285.638
590.993	1280.575
591.121	1277.312
591.249	1289.737
591.377	1280.662
591.505	1294.162
591.633	1273.900
591.762	1298.125
591.890	1301.062
592.018	1295.638
592.146	1294.625
592.274	1322.237
592.402	1304.162
592.530	1312.575
592.658	1314.963
592.787	1324.800
592.915	1314.275
593.043	1317.150
593.171	1328.987
593.299	1344.250
593.427	1336.725
593.555	1345.000
593.683	1328.625
593.812	1344.150
593.940	1356.237
594.068	1360.475
594.196	1382.625
594.324	1360.412
594.452	1367.675
594.580	1388.338
594.708	1377.050
594.837	1396.150
594.965	1401.312
595.093	1399.088
595.221	1406.375
595.349	1422.763
595.477	1417.787
595.605	1424.138
595.733	1459.175
595.862	1447.187
595.990	1441.888
596.118	1452.713
596.246	1462.862
596.374	1488.550
596.502	1497.037
596.630	1474.412
596.758	1482.750
596.887	1490.125
597.015	1510.025
597.143	1475.312
597.271	1508.975
597.399	1518.450
597.527	1517.888
597.655	1517.650
597.783	1520.912
597.912	1523.437
598.040	1522.687
598.168	1531.825
598.296	1530.550
598.424	1540.850
598.552	1536.025
598.680	1526.675
598.808	1533.675
598.937	1544.750
599.065	1558.713
599.193	1541.150
599.321	1539.975
599.449	1566.963
599.577	1551.987
599.705	1557.138
599.833	1559.388
599.962	1557.237
600.090	1569.937
600.218	1568.550
600.346	1574.388
600.474	1595.987
600.602	1576.675
600.730	1587.537
600.858	1601.437
600.987	1593.800
601.115	1594.700
601.243	1596.362
601.371	1600.562
601.499	1603.875
601.627	1620.475
601.755	1619.325
601.883	1630.125
602.012	1668.225
602.140	1648.062
602.268	1658.487
602.396	1673.450
602.524	1674.450
602.652	1690.388
602.780	1682.275
602.908	1702.638
603.037	1717.025
603.165	1719.400
603.293	1735.750
603.421	1746.575
603.549	1728.412
603.677	1776.362
603.805	1757.350
603.933	1770.187
604.062	1792.425
604.190	1817.362
604.318	1799.125
604.446	1842.650
604.574	1832.013
604.702	1841.062
604.830	1848.662
604.958	1878.025
605.087	1889.937
605.215	1899.562
605.343	1901.175
605.471	1908.588
605.599	1911.687
605.727	1939.062
605.855	1944.625
605.983	1942.713
606.112	1975.963
606.240	1978.513
606.368	1992.950
606.496	1984.050
606.624	1995.937
606.752	2010.700
606.880	2020.737
607.008	2039.987
607.137	2043.888
607.265	2040.487
607.393	2066.637
607.521	2074.475
607.649	2068.975
607.777	2061.225
607.905	2076.812
608.033	2090.350
608.162	2092.613
608.290	2098.088
608.418	2116.200
608.546	2100.037
608.674	2142.475
608.802	2114.550
608.930	2124.588
609.058	2124.762
609.187	2138.338
609.315	2144.975
609.443	2154.912
609.571	2161.463
609.699	2157.475
609.827	2161.000
609.955	2172.525
610.083	2167.250
610.212	2162.488
610.340	2180.137
610.468	2187.738
610.596	2204.463
610.724	2197.125
610.852	2200.838
610.980	2214.275
611.108	2238.338
611.237	2209.175
611.365	2238.850
611.493	2215.338
611.621	2262.613
611.749	2261.600
611.877	2261.113
612.005	2264.900
612.133	2276.863
612.262	2265.537
612.390	2289.137
612.518	2313.312
612.646	2336.062
612.774	2300.137
612.902	2315.575
613.030	2320.000
613.158	2363.150
613.287	2368.713
613.415	2366.437
613.543	2352.912
613.671	2364.675
613.799	2403.525
613.927	2399.600
614.055	2415.675
614.183	2489.812
614.312	2403.238
614.440	2505.950
614.568	2447.137
614.696	2457.863
614.824	2571.412
614.952	2489.550
615.080	2489.650
615.208	2509.750
615.337	2534.287
615.465	2535.537
615.593	2548.725
615.721	2577.412
615.849	2599.963
615.977	2602.400
616.105	2632.600
616.233	2614.350
616.362	2677.937
616.490	2621.412
616.618	2617.588
616.746	2682.550
616.874	2741.450
617.002	2694.062
617.130	2738.637
617.258	2826.875
617.387	2744.738
617.515	2725.588
617.643	2758.075
617.771	2802.238
617.899	2789.725
618.027	2775.375
618.155	2878.588
618.283	2807.325
618.412	2813.037
618.540	2903.075
618.668	2866.325
618.796	2851.000
618.924	2985.762
619.052	2885.213
619.180	2860.287
619.308	2924.175
619.437	2932.662
619.565	2927.062
619.693	2924.838
619.821	2929.588
619.949	2949.812
620.077	2968.500
620.205	3003.450
620.333	3009.787
620.462	3037.687
620.590	3062.725
620.718	3010.075
620.846	3106.588
620.974	3114.550
621.102	3056.363
621.230	3045.025
621.358	3159.025
621.487	3062.687
621.615	3081.800
621.743	3107.525
621.871	3105.300
621.999	3175.300
622.127	3141.238
622.255	3148.662
622.383	3133.900
622.512	3138.475
622.640	3289.325
622.768	3146.275
622.896	3166.950
623.024	3181.588
623.152	3264.662
623.280	3237.812
623.408	3193.463
623.537	3233.850
623.665	3194.700
623.793	3254.713
623.921	3233.338
624.049	3228.363
624.177	3261.450
624.305	3299.825
624.433	3297.937
624.562	3298.400
624.690	3330.012
624.818	3353.225
624.946	3469.925
625.074	3368.775
625.202	3329.525
625.330	3328.713
625.458	3414.713
625.587	3378.725
625.715	3406.662
625.843	3507.225
625.971	3412.925
626.099	3409.575
626.227	3433.650
626.355	3410.550
626.483	3501.512
626.612	3423.488
626.740	3442.375
626.868	3486.062
626.996	3430.875
627.124	3449.700
627.252	3462.488
627.380	3507.863
627.508	3510.412
627.637	3480.687
627.765	3534.287
627.893	3560.838
628.021	3543.375
628.149	3566.750
628.277	3600.838
628.405	3671.937
628.533	3570.725
628.662	3646.287
628.790	3588.675
628.918	3616.425
629.046	3619.950
629.174	3653.975
629.302	3750.625
629.430	3674.200
629.558	3699.387
629.687	3722.662
629.815	3715.463
629.943	3763.825
630.071	3777.238
630.199	3790.338
630.327	3785.613
630.455	3741.863
630.583	3879.537
630.712	3843.025
630.840	3840.850
630.968	3898.475
631.096	3861.062
631.224	3864.675
631.352	3883.287
631.480	3919.100
631.608	3908.662
631.737	4000.725
631.865	4096.163
631.993	3930.238
632.121	4069.537
632.249	4044.175
632.377	4033.812
632.505	4024.225
632.633	3996.050
632.762	4077.450
632.890	4164.850
633.018	4043.812
633.146	4089.912
633.274	4111.150
633.402	4097.125
633.530	4084.250
633.658	4242.887
633.787	4096.500
633.915	4178.100
634.043	4147.325
634.171	4136.825
634.299	4182.712
634.427	4264.863
634.555	4211.663
634.683	4163.413
634.812	4187.837
634.940	4195.275
635.068	4145.212
635.196	4229.762
635.324	4199.488
635.452	4295.038
635.580	4191.637
635.708	4218.413
635.837	4275.825
635.965	4229.400
636.093	4249.712
636.221	4207.262
636.349	4301.325
636.477	4189.025
636.605	4375.900
636.733	4226.475
636.862	4213.212
636.990	4269.238
637.118	4314.562
637.246	4290.512
637.374	4265.712
637.502	4248.312
637.630	4215.850
637.758	4263.113
637.887	4246.475
638.015	4239.175
638.143	4216.262
638.271	4256.075
638.399	4240.775
638.527	4224.825
638.655	4227.738
638.783	4380.625
638.912	4270.175
639.040	4246.075
639.168	4294.050
639.296	4246.900
639.424	4358.775
639.552	4231.250
639.680	4273.837
639.808	4307.700
639.937	4233.437
640.065	4237.350
640.193	4344.488
640.321	4274.050
640.449	4316.113
640.577	4362.475
640.705	4270.738
640.833	4403.512
640.962	4253.038
641.090	4272.400
641.218	4247.075
641.346	4300.150
641.474	4326.038
641.602	4280.700
641.730	4283.025
641.858	4313.762
641.987	4357.562
642.115	4296.613
642.243	4359.238
642.371	4343.250
642.499	4335.462
642.627	4373.163
642.755	4424.425
642.883	4401.887
643.012	4381.137
643.140	4313.212
643.268	4376.738
643.396	4372.238
643.524	4509.087
643.652	4390.238
643.780	4382.012
643.908	4401.975
644.037	4542.250
644.165	4394.450
644.293	4405.937
644.421	4397.962
644.549	4477.725
644.677	4412.325
644.805	4449.137
644.933	4400.462
645.062	4434.363
645.190	4439.962
645.318	4521.613
645.446	4449.700
645.574	4502.775
645.702	4432.613
645.830	4612.337
645.958	4436.712
646.087	4629.525
646.215	4456.250
646.343	4612.150
646.471	4531.512
646.599	4534.363
646.727	4496.700
646.855	4484.225
646.983	4510.625
647.112	4437.625
647.240	4660.038
647.368	4485.925
647.496	4533.788
647.624	4452.625
647.752	4465.212
647.880	4484.837
648.008	4483.687
648.137	4470.625
648.265	4470.462
648.393	4464.550
648.521	4480.100
648.649	4497.488
648.777	4490.212
648.905	4426.100
649.033	4468.350
649.162	4474.087
649.290	4437.225
649.418	4495.650
649.546	4482.637
649.674	4511.387
649.802	4441.850
649.930	4569.812
650.058	4383.700
650.187	4445.975
650.315	4377.663
650.443	4489.637
650.571	4422.837
650.699	4365.712
650.827	4361.788
650.955	4409.387
651.083	4391.400
651.212	4443.325
651.340	4441.863
651.468	4385.025
651.596	4348.825
651.724	4332.600
651.852	4339.913
651.980	4323.500
652.108	4444.550
652.237	4351.012
652.365	4427.363
652.493	4286.400
652.621	4296.538
652.749	4370.900
652.877	4275.650
653.005	4299.025
653.133	4263.900
653.262	4311.775
653.390	4234.687
653.518	4343.825
653.646	4255.925
653.774	4417.038
653.902	4277.225
654.030	4196.400
654.158	4232.062
654.287	4204.850
654.415	4242.538
654.543	4207.137
654.671	4257.187
654.799	4200.525
654.927	4175.000
655.055	4155.837
655.183	4191.975
655.312	4172.512
655.440	4174.450
655.568	4122.075
655.696	4222.637
655.824	4252.175
655.952	4120.075
656.080	4087.725
656.208	4254.488
656.337	4126.113
656.465	4123.450
656.593	4146.762
656.721	4102.812
656.849	4151.725
656.977	4080.425
657.105	4108.038
657.233	4019.900
657.362	4054.025
657.490	4050.850
657.618	4032.713
657.746	4026.213
657.874	3990.250
658.002	3984.675
658.130	4009.450
658.258	3958.787
658.387	3985.450
658.515	3943.825
658.643	3996.838
658.771	3939.500
658.899	3957.687
659.027	3973.287
659.155	3948.488
659.283	4099.225
659.412	3932.488
659.540	4026.437
659.668	3917.675
659.796	3918.062
659.924	3963.637
660.052	3892.488
660.180	3911.500
660.308	3895.863
660.437	3877.175
660.565	3867.312
660.693	3841.062
660.821	3846.387
660.949	3840.262
661.077	3823.100
661.205	3822.037
661.333	3784.912
661.462	3892.488
661.590	3823.963
661.718	3967.863
661.846	3886.825
661.974	3950.150
662.102	3818.250
662.230	3834.525
662.358	3778.338
662.487	3783.475
662.615	3747.325
662.743	3712.375
662.871	3735.687
662.999	3724.950
663.127	3688.838
663.255	3807.812
663.383	3791.762
663.512	3682.162
663.640	3724.275
663.768	3677.050
663.896	3690.500
664.024	3731.125
664.152	3691.738
664.280	3693.775
664.408	3679.863
664.537	3703.700
664.665	3614.550
664.793	3618.762
664.921	3622.137
665.049	3628.687
665.177	3617.425
665.305	3616.787
665.433	3627.588
665.562	3602.287
665.690	3621.687
665.818	3761.463
665.946	3617.950
666.074	3585.475
666.202	3543.475
666.330	3595.825
666.458	3587.700
666.587	3517.675
666.715	3542.325
666.843	3505.175
666.971	3508.687
667.099	3542.963
667.227	3524.213
667.355	3541.512
667.483	3506.387
667.612	3515.850
667.740	3516.338
667.868	3559.475
667.996	3508.100
668.124	3467.600
668.252	3453.588
668.380	3428.650
668.508	3480.363
668.637	3461.937
668.765	3421.588
668.893	3468.500
669.021	3425.512
669.149	3474.325
669.277	3479.012
669.405	3392.500
669.533	3397.375
669.662	3637.838
669.790	3394.187
669.918	3461.463
670.046	3386.500
670.174	3472.637
670.302	3418.363
670.430	3385.687
670.558	3416.187
670.687	3333.750
670.815	3491.275
670.943	3287.475
671.071	3322.262
671.199	3346.575
671.327	3275.738
671.455	3307.187
671.583	3293.637
671.712	3411.050
671.840	3281.387
671.968	3232.275
672.096	3254.350
672.224	3206.575
672.352	3384.562
672.480	3237.325
672.608	3179.175
672.737	3209.387
672.865	3357.575
672.993	3204.912
673.121	3152.113
673.249	3161.812
673.377	3120.213
673.505	3113.387
673.633	3136.488
673.762	3094.887
673.890	3113.463
674.018	3317.412
674.146	3084.250
674.274	3094.650
674.402	3259.775
674.530	3075.175
674.658	3075.225
674.787	3026.000
674.915	2985.775
675.043	3070.787
675.171	3060.150
675.299	3012.350
675.427	3044.437
675.555	2971.325
675.683	2963.963
675.812	2972.363
675.940	2978.600
676.068	2978.713
676.196	2950.562
676.324	2958.050
676.452	2980.787
676.580	2911.700
676.708	2956.025
676.837	2991.312
676.965	2891.588
677.093	2877.062
677.221	2887.025
677.349	2904.137
677.477	2945.550
677.605	2892.838
677.733	2928.125
677.862	2830.262
677.990	2796.625
678.118	2788.250
678.246	2825.338
678.374	2801.887
678.502	2748.662
678.630	2745.537
678.758	2723.475
678.887	2759.713
679.015	2741.338
679.143	2725.488
679.271	2719.425
679.399	2726.775
679.527	2709.937
679.655	2689.325
679.783	2711.325
679.912	2696.662
680.040	2677.850
680.168	2670.200
680.296	2689.600
680.424	2632.050
680.552	2660.400
680.680	2726.537
680.808	2629.750
680.937	2617.200
681.065	2631.000
681.193	2632.350
681.321	2619.812
681.449	2605.425
681.577	2604.338
681.705	2615.150
681.833	2589.137
681.962	2559.338
682.090	2701.300
682.218	2547.850
682.346	2559.287
682.474	2576.613
682.602	2565.725
682.730	2566.562
682.858	2530.200
682.987	2580.387
683.115	2547.838
683.243	2524.437
683.371	2508.287
683.499	2498.187
683.627	2552.262
683.755	2551.800
683.883	2610.287
684.012	2509.275
684.140	2492.150
684.268	2487.512
684.396	2500.262
684.524	2498.375
684.652	2521.838
684.780	2505.800
684.908	2494.975
685.037	2437.000
685.165	2454.475
685.293	2459.687
685.421	2488.000
685.549	2435.963
685.677	2447.387
685.805	2480.475
685.933	2459.550
686.062	2433.925
686.190	2416.950
686.318	2455.850
686.446	2415.338
686.574	2402.175
686.702	2443.037
686.830	2411.937
686.958	2396.825
687.087	2409.100
687.215	2387.162
687.343	2399.350
687.471	2380.325
687.599	2365.088
687.727	2383.437
687.855	2377.400
687.983	2377.088
688.112	2378.387
688.240	2346.475
688.368	2353.575
688.496	2349.937
688.624	2348.863
688.752	2331.400
688.880	2325.600
689.008	2323.550
689.137	2312.613
689.265	2312.675
689.393	2297.113
689.521	2299.150
689.649	2305.800
689.777	2291.175
689.905	2289.238
690.033	2287.350
690.162	2271.437
690.290	2262.350
690.418	2271.900
690.546	2280.787
690.674	2271.312
690.802	2237.075
690.930	2235.463
691.058	2240.275
691.187	2219.187
691.315	2251.537
691.443	2214.275
691.571	2209.275
691.699	2179.387
691.827	2202.488
691.955	2195.575
692.083	2171.275
692.212	2189.912
692.340	2166.850
692.468	2162.225
692.596	2156.912
692.724	2154.812
692.852	2122.338
692.980	2147.838
693.108	2141.800
693.237	2115.875
693.365	2107.300
693.493	2102.925
693.621	2082.025
693.749	2096.725
693.877	2065.963
694.005	2071.312
694.133	2086.350
694.262	2055.088
694.390	2048.650
694.518	2024.925
694.646	2042.750
694.774	2026.638
694.902	2011.812
695.030	2055.425
695.158	1996.362
695.287	2014.325
695.415	1987.263
695.543	1985.700
695.671	1967.700
695.799	1957.375
695.927	1943.612
696.055	1943.700
696.183	1997.487
696.312	1949.263
696.440	1926.737
696.568	1926.425
696.696	1894.987
696.824	1906.600
696.952	1904.237
697.080	1889.050
697.208	1915.125
697.337	1867.763
697.465	1873.000
697.593	1856.075
697.721	1864.187
697.849	1865.150
697.977	1853.362
698.105	1861.638
698.233	1848.112
698.362	1815.475
698.490	1828.500
698.618	1820.975
698.746	1812.300
698.874	1823.125
699.002	1801.475
699.130	1794.062
699.258	1801.050
699.387	1759.450
699.515	1777.650
699.643	1796.700
699.771	1772.275
699.899	1757.187
700.027	1741.250
700.155	1749.650
700.283	1765.588
700.412	1731.175
700.540	1719.500
700.668	1705.062
700.796	1714.088
700.924	1693.237
701.052	1685.125
701.180	1691.662
701.308	1692.700
701.437	1652.437
701.565	1685.275
701.693	1661.838
701.821	1675.562
701.949	1664.862
702.077	1629.750
702.205	1643.225
702.333	1632.487
702.462	1631.888
702.590	1608.125
702.718	1634.650
702.846	1607.862
702.974	1619.125
703.102	1605.862
703.230	1579.062
703.358	1569.388
703.487	1567.250
703.615	1561.300
703.743	1542.588
703.871	1557.638
703.999	1534.838
704.127	1536.300
704.255	1530.513
704.383	1525.888
704.512	1516.425
704.640	1514.013
704.768	1495.162
704.896	1495.112
705.024	1487.500
705.152	1488.763
705.280	1476.713
705.408	1468.475
705.537	1473.900
705.665	1460.275
705.793	1455.037
705.921	1445.550
706.049	1458.850
706.177	1447.250
706.305	1427.338
706.433	1424.362
706.562	1409.150
706.690	1408.375
706.818	1400.500
706.946	1394.375
707.074	1390.162
707.202	1387.263
707.330	1378.312
707.458	1374.375
707.587	1359.412
707.715	1364.737
707.843	1341.025
707.971	1346.275
708.099	1347.912
708.227	1326.562
708.355	1333.088
708.483	1327.562
708.612	1325.912
708.740	1322.388
708.868	1296.412
708.996	1306.937
709.124	1306.925
709.252	1290.425
709.380	1284.500
709.508	1265.025
709.637	1279.088
709.765	1265.138
709.893	1252.850
710.021	1256.562
710.149	1260.575
710.277	1250.463
710.405	1247.050
710.533	1236.975
710.662	1241.888
710.790	1227.025
710.918	1230.963
711.046	1209.550
711.174	1204.000
711.302	1201.287
711.430	1188.338
711.558	1202.338
711.687	1191.388
711.815	1188.162
711.943	1190.112
712.071	1167.850
712.199	1178.725
712.327	1166.825
712.455	1169.162
712.583	1157.662
712.712	1158.862
712.840	1155.412
712.968	1141.450
713.096	1132.987
713.224	1139.338
713.352	1140.800
713.480	1112.537
713.608	1114.662
713.737	1105.412
713.865	1099.775
713.993	1089.675
714.121	1092.213
714.249	1101.850
714.377	1079.550
714.505	1092.725
714.633	1071.162
714.762	1064.075
714.890	1072.375
715.018	1068.925
715.146	1051.562
715.274	1047.850
715.402	1047.650
715.530	1053.612
715.658	1025.175
715.787	1047.150
715.915	1030.575
716.043	1014.450
716.171	1035.713
716.299	1047.375
716.427	1010.237
716.555	1018.900
716.683	1013.875
716.812	1001.337
716.940	998.750
717.068	979.850
717.196	988.087
717.324	986.987
717.452	979.825
717.580	970.163
717.708	970.087
717.837	971.175
717.965	971.125
718.093	952.462
718.221	943.538
718.349	954.312
718.477	944.362
718.605	937.675
718.733	936.187
718.862	926.600
718.990	922.663
719.118	929.237
719.246	912.038
719.374	918.163
719.502	915.450
719.630	913.100
719.758	904.187
719.887	895.750
720.015	906.138
720.143	895.425
720.271	896.975
720.399	888.975
720.527	878.413
720.655	874.612
720.783	866.050
720.912	866.187
721.040	871.700
721.168	851.112
721.296	862.812
721.424	845.237
721.552	845.000
721.680	841.612
721.808	848.500
721.937	843.388
722.065	831.312
722.193	818.937
722.321	825.875
722.449	812.500
722.577	807.638
722.705	808.300
722.833	805.775
722.962	810.013
723.090	798.275
723.218	784.437
723.346	794.913
723.474	785.475
723.602	792.300
723.730	775.800
723.858	782.500
723.987	771.425
724.115	760.538
724.243	759.212
724.371	759.775
724.499	763.000
724.627	744.975
724.755	758.312
724.883	754.050
725.012	738.875
725.140	733.250
725.268	740.312
725.396	739.288
725.524	720.925
725.652	719.900
725.780	715.987
725.908	716.638
726.037	710.175
726.165	699.837
726.293	692.112
726.421	695.087
726.549	688.663
726.677	684.237
726.805	689.625
726.933	696.263
727.062	675.962
727.190	679.075
727.318	668.950
727.446	674.175
727.574	676.663
727.702	667.388
727.830	651.362
727.958	659.712
728.087	653.538
728.215	656.850
728.343	644.962
728.471	646.413
728.599	624.687
728.727	643.087
728.855	635.087
728.983	627.038
729.112	623.638
729.240	628.013
729.368	613.275
729.496	623.100
729.624	623.362
729.752	613.475
729.880	607.687
730.008	604.025
730.137	600.837
730.265	601.725
730.393	597.925
730.521	590.200
730.649	597.825
730.777	579.362
730.905	577.788
731.033	581.913
731.162	577.650
731.290	590.575
731.418	572.812
731.546	590.937
731.674	566.388
731.802	566.687
731.930	569.450
732.058	566.013
732.187	560.087
732.315	556.500
732.443	558.112
732.571	538.975
732.699	547.212
732.827	552.025
732.955	536.837
733.083	534.025
733.212	533.362
733.340	538.087
733.468	534.925
733.596	528.013
733.724	514.250
733.852	526.000
733.980	525.312
734.108	524.900
734.237	525.337
734.365	506.937
734.493	522.763
734.621	506.975
734.749	514.800
734.877	503.562
735.005	502.450
735.133	501.837
735.262	507.675
735.390	499.137
735.518	490.575
735.646	480.375
735.774	492.525
735.902	490.400
736.030	480.100
736.158	486.100
