sample12_PS_at_750.00nm_cut_at_1008.00Y_02.dat
15.05.2023
11:13:50
cut middle at Y: 1008.00
top cursor: 1048 down cursor: 968 mean of: 80 lines , 2560 datapoints
wavelength(nm)	intensity[arb. units]
585.996	1057.237
586.124	1029.763
586.252	1026.750
586.380	1031.537
586.508	1023.200
586.637	1034.013
586.765	1021.650
586.893	1027.112
587.021	1029.487
587.149	1034.375
587.277	1025.875
587.405	1031.213
587.533	1033.450
587.662	1038.925
587.790	1048.225
587.918	1046.388
588.046	1040.850
588.174	1036.100
588.302	1047.362
588.430	1041.200
588.558	1045.588
588.687	1046.425
588.815	1067.237
588.943	1044.412
589.071	1036.213
589.199	1050.100
589.327	1043.325
589.455	1040.125
589.583	1047.787
589.712	1050.800
589.840	1044.275
589.968	1038.713
590.096	1044.850
590.224	1052.487
590.352	1042.987
590.480	1045.350
590.608	1038.287
590.737	1034.875
590.865	1051.662
590.993	1044.037
591.121	1038.525
591.249	1047.088
591.377	1038.338
591.505	1037.500
591.633	1043.600
591.762	1048.525
591.890	1057.325
592.018	1047.325
592.146	1053.000
592.274	1046.662
592.402	1045.700
592.530	1049.450
592.658	1049.725
592.787	1057.062
592.915	1045.800
593.043	1047.562
593.171	1056.950
593.299	1067.437
593.427	1056.612
593.555	1061.237
593.683	1056.963
593.812	1065.300
593.940	1067.975
594.068	1065.763
594.196	1089.900
594.324	1063.388
594.452	1068.037
594.580	1081.287
594.708	1073.138
594.837	1080.362
594.965	1091.900
595.093	1088.713
595.221	1078.225
595.349	1088.737
595.477	1098.687
595.605	1086.250
595.733	1112.175
595.862	1096.987
595.990	1091.300
596.118	1106.263
596.246	1106.325
596.374	1121.237
596.502	1133.912
596.630	1108.513
596.758	1114.287
596.887	1115.075
597.015	1133.537
597.143	1100.812
597.271	1116.350
597.399	1124.125
597.527	1123.225
597.655	1124.300
597.783	1133.187
597.912	1113.375
598.040	1130.475
598.168	1127.338
598.296	1124.925
598.424	1117.912
598.552	1128.763
598.680	1128.263
598.808	1124.963
598.937	1138.213
599.065	1139.537
599.193	1124.225
599.321	1107.775
599.449	1125.088
599.577	1125.925
599.705	1122.838
599.833	1117.437
599.962	1111.500
600.090	1118.412
600.218	1120.125
600.346	1133.900
600.474	1135.575
600.602	1133.263
600.730	1132.150
600.858	1135.638
600.987	1115.662
601.115	1136.425
601.243	1128.013
601.371	1141.537
601.499	1130.975
601.627	1132.213
601.755	1136.925
601.883	1132.900
602.012	1148.888
602.140	1140.325
602.268	1148.013
602.396	1147.950
602.524	1158.650
602.652	1165.000
602.780	1153.062
602.908	1156.625
603.037	1160.687
603.165	1174.838
603.293	1174.550
603.421	1178.662
603.549	1175.500
603.677	1206.775
603.805	1188.812
603.933	1197.975
604.062	1197.800
604.190	1214.263
604.318	1196.437
604.446	1217.963
604.574	1222.963
604.702	1219.362
604.830	1219.537
604.958	1231.850
605.087	1248.287
605.215	1239.600
605.343	1254.112
605.471	1237.175
605.599	1253.675
605.727	1256.675
605.855	1262.575
605.983	1261.388
606.112	1274.138
606.240	1281.763
606.368	1281.362
606.496	1281.275
606.624	1280.450
606.752	1280.737
606.880	1275.200
607.008	1306.650
607.137	1311.125
607.265	1301.700
607.393	1311.925
607.521	1317.062
607.649	1304.612
607.777	1307.450
607.905	1301.800
608.033	1310.950
608.162	1310.463
608.290	1309.225
608.418	1318.138
608.546	1318.975
608.674	1335.475
608.802	1320.713
608.930	1329.550
609.058	1324.437
609.187	1320.287
609.315	1329.625
609.443	1316.463
609.571	1332.213
609.699	1336.237
609.827	1335.000
609.955	1331.412
610.083	1324.312
610.212	1339.263
610.340	1338.513
610.468	1322.600
610.596	1329.338
610.724	1331.400
610.852	1342.338
610.980	1337.400
611.108	1334.800
611.237	1340.875
611.365	1343.425
611.493	1348.000
611.621	1352.187
611.749	1364.638
611.877	1362.900
612.005	1370.250
612.133	1355.800
612.262	1354.400
612.390	1370.475
612.518	1377.625
612.646	1351.338
612.774	1375.300
612.902	1376.912
613.030	1376.625
613.158	1381.838
613.287	1421.912
613.415	1403.125
613.543	1396.937
613.671	1402.225
613.799	1417.525
613.927	1404.325
614.055	1412.162
614.183	1415.362
614.312	1415.062
614.440	1424.037
614.568	1437.700
614.696	1442.575
614.824	1431.463
614.952	1419.200
615.080	1442.912
615.208	1447.088
615.337	1448.000
615.465	1460.088
615.593	1483.237
615.721	1472.300
615.849	1475.375
615.977	1495.025
616.105	1480.500
616.233	1480.362
616.362	1502.500
616.490	1485.275
616.618	1500.525
616.746	1492.437
616.874	1510.662
617.002	1509.787
617.130	1529.175
617.258	1521.675
617.387	1510.950
617.515	1527.850
617.643	1534.838
617.771	1540.187
617.899	1555.112
618.027	1549.463
618.155	1549.187
618.283	1553.737
618.412	1559.412
618.540	1568.213
618.668	1572.388
618.796	1570.600
618.924	1589.350
619.052	1588.213
619.180	1578.088
619.308	1591.537
619.437	1583.362
619.565	1590.287
619.693	1585.213
619.821	1587.763
619.949	1589.225
620.077	1591.550
620.205	1602.900
620.333	1606.475
620.462	1628.687
620.590	1612.425
620.718	1612.838
620.846	1628.675
620.974	1662.237
621.102	1628.100
621.230	1623.825
621.358	1649.612
621.487	1639.600
621.615	1637.475
621.743	1654.050
621.871	1641.987
621.999	1630.662
622.127	1645.500
622.255	1650.250
622.383	1646.500
622.512	1658.713
622.640	1652.175
622.768	1656.588
622.896	1660.725
623.024	1642.775
623.152	1675.475
623.280	1652.062
623.408	1667.812
623.537	1684.437
623.665	1688.037
623.793	1677.937
623.921	1675.312
624.049	1682.475
624.177	1681.412
624.305	1677.125
624.433	1707.525
624.562	1703.625
624.690	1670.225
624.818	1692.150
624.946	1702.050
625.074	1704.237
625.202	1713.463
625.330	1728.950
625.458	1716.687
625.587	1711.287
625.715	1708.263
625.843	1715.862
625.971	1722.638
626.099	1746.500
626.227	1736.300
626.355	1718.937
626.483	1736.825
626.612	1721.325
626.740	1745.713
626.868	1751.975
626.996	1726.838
627.124	1732.350
627.252	1735.013
627.380	1757.513
627.508	1746.225
627.637	1754.713
627.765	1760.675
627.893	1796.900
628.021	1777.400
628.149	1799.175
628.277	1808.000
628.405	1806.725
628.533	1808.300
628.662	1793.500
628.790	1800.275
628.918	1808.213
629.046	1813.687
629.174	1796.675
629.302	1835.750
629.430	1836.775
629.558	1820.000
629.687	1836.062
629.815	1840.737
629.943	1832.575
630.071	1863.138
630.199	1856.737
630.327	1851.125
630.455	1858.362
630.583	1886.925
630.712	1897.588
630.840	1887.050
630.968	1927.075
631.096	1914.100
631.224	1905.375
631.352	1901.537
631.480	1910.775
631.608	1916.362
631.737	1935.250
631.865	1963.025
631.993	1933.362
632.121	1959.088
632.249	1948.575
632.377	1966.250
632.505	1963.100
632.633	1956.875
632.762	1989.213
632.890	2000.200
633.018	1991.900
633.146	1980.200
633.274	1987.300
633.402	1973.100
633.530	1986.037
633.658	2011.750
633.787	1993.575
633.915	2008.575
634.043	1996.862
634.171	2029.200
634.299	2029.638
634.427	2029.675
634.555	2038.000
634.683	2048.850
634.812	2019.513
634.940	2048.363
635.068	2020.287
635.196	2045.013
635.324	2063.412
635.452	2079.000
635.580	2050.787
635.708	2068.887
635.837	2068.412
635.965	2064.387
636.093	2052.700
636.221	2062.687
636.349	2069.963
636.477	2066.088
636.605	2109.000
636.733	2069.088
636.862	2062.900
636.990	2075.150
637.118	2084.687
637.246	2071.050
637.374	2066.187
637.502	2074.675
637.630	2082.562
637.758	2082.475
637.887	2066.512
638.015	2076.088
638.143	2107.137
638.271	2081.925
638.399	2078.287
638.527	2079.925
638.655	2080.650
638.783	2116.550
638.912	2081.787
639.040	2070.275
639.168	2082.075
639.296	2089.550
639.424	2114.200
639.552	2092.400
639.680	2122.463
639.808	2092.562
639.937	2090.988
640.065	2092.800
640.193	2131.738
640.321	2099.900
640.449	2137.575
640.577	2149.100
640.705	2105.825
640.833	2136.113
640.962	2134.762
641.090	2125.937
641.218	2129.162
641.346	2121.012
641.474	2124.162
641.602	2107.950
641.730	2146.338
641.858	2145.312
641.987	2156.600
642.115	2163.588
642.243	2166.850
642.371	2190.275
642.499	2158.812
642.627	2171.600
642.755	2177.750
642.883	2193.175
643.012	2188.537
643.140	2182.850
643.268	2182.363
643.396	2215.750
643.524	2228.537
643.652	2219.713
643.780	2204.125
643.908	2219.100
644.037	2229.625
644.165	2219.425
644.293	2236.762
644.421	2207.875
644.549	2245.988
644.677	2256.062
644.805	2263.050
644.933	2242.088
645.062	2247.500
645.190	2233.713
645.318	2238.625
645.446	2280.512
645.574	2291.887
645.702	2271.725
645.830	2330.588
645.958	2287.350
646.087	2333.963
646.215	2282.175
646.343	2343.762
646.471	2309.950
646.599	2330.550
646.727	2306.600
646.855	2297.850
646.983	2339.838
647.112	2311.437
647.240	2378.262
647.368	2318.500
647.496	2339.738
647.624	2318.925
647.752	2319.037
647.880	2332.687
648.008	2346.062
648.137	2327.000
648.265	2337.075
648.393	2326.137
648.521	2348.613
648.649	2356.437
648.777	2349.625
648.905	2365.887
649.033	2340.525
649.162	2351.963
649.290	2346.650
649.418	2350.762
649.546	2347.887
649.674	2377.200
649.802	2357.637
649.930	2404.287
650.058	2350.437
650.187	2373.100
650.315	2350.613
650.443	2368.437
650.571	2369.488
650.699	2373.850
650.827	2367.662
650.955	2351.113
651.083	2371.012
651.212	2392.800
651.340	2389.738
651.468	2378.262
651.596	2376.213
651.724	2365.437
651.852	2357.425
651.980	2352.887
652.108	2416.875
652.237	2374.088
652.365	2386.963
652.493	2366.012
652.621	2357.400
652.749	2409.300
652.877	2373.075
653.005	2376.488
653.133	2378.363
653.262	2401.812
653.390	2366.525
653.518	2413.175
653.646	2371.800
653.774	2440.850
653.902	2413.113
654.030	2377.613
654.158	2379.900
654.287	2386.975
654.415	2394.275
654.543	2382.287
654.671	2402.113
654.799	2383.662
654.927	2388.838
655.055	2370.662
655.183	2397.187
655.312	2383.387
655.440	2418.937
655.568	2389.887
655.696	2427.863
655.824	2440.412
655.952	2387.187
656.080	2388.700
656.208	2454.550
656.337	2386.887
656.465	2400.250
656.593	2421.900
656.721	2406.525
656.849	2445.300
656.977	2399.937
657.105	2400.100
657.233	2377.500
657.362	2391.912
657.490	2387.012
657.618	2409.900
657.746	2415.363
657.874	2388.637
658.002	2389.088
658.130	2407.713
658.258	2388.050
658.387	2411.088
658.515	2387.912
658.643	2403.925
658.771	2398.725
658.899	2417.950
659.027	2410.275
659.155	2399.037
659.283	2457.637
659.412	2394.162
659.540	2447.625
659.668	2399.238
659.796	2408.613
659.924	2452.838
660.052	2404.400
660.180	2416.450
660.308	2415.238
660.437	2398.475
660.565	2432.662
660.693	2418.450
660.821	2416.825
660.949	2432.762
661.077	2400.062
661.205	2437.088
661.333	2389.175
661.462	2478.787
661.590	2452.150
661.718	2476.338
661.846	2431.200
661.974	2483.588
662.102	2426.425
662.230	2440.675
662.358	2422.787
662.487	2438.562
662.615	2420.350
662.743	2415.100
662.871	2421.588
662.999	2412.963
663.127	2404.625
663.255	2443.650
663.383	2457.213
663.512	2442.025
663.640	2427.562
663.768	2419.425
663.896	2427.387
664.024	2424.900
664.152	2436.187
664.280	2452.625
664.408	2439.975
664.537	2475.425
664.665	2398.800
664.793	2396.988
664.921	2389.175
665.049	2409.937
665.177	2425.988
665.305	2433.400
665.433	2432.350
665.562	2408.687
665.690	2440.637
665.818	2494.650
665.946	2430.850
666.074	2437.662
666.202	2423.150
666.330	2443.700
666.458	2441.525
666.587	2414.925
666.715	2452.350
666.843	2423.963
666.971	2428.162
667.099	2434.950
667.227	2436.838
667.355	2434.400
667.483	2424.950
667.612	2443.375
667.740	2436.963
667.868	2463.238
667.996	2432.800
668.124	2426.450
668.252	2434.062
668.380	2408.075
668.508	2448.213
668.637	2430.262
668.765	2434.838
668.893	2455.238
669.021	2424.963
669.149	2439.875
669.277	2441.750
669.405	2424.875
669.533	2447.450
669.662	2529.400
669.790	2426.175
669.918	2453.650
670.046	2431.937
670.174	2467.250
670.302	2441.062
670.430	2430.488
670.558	2438.875
670.687	2428.738
670.815	2467.137
670.943	2403.838
671.071	2421.775
671.199	2429.213
671.327	2406.750
671.455	2411.088
671.583	2408.713
671.712	2461.162
671.840	2402.175
671.968	2386.537
672.096	2391.800
672.224	2389.062
672.352	2444.300
672.480	2396.725
672.608	2368.575
672.737	2391.450
672.865	2424.088
672.993	2378.012
673.121	2371.625
673.249	2368.350
673.377	2355.437
673.505	2373.025
673.633	2359.963
673.762	2338.725
673.890	2358.550
674.018	2425.275
674.146	2351.050
674.274	2358.463
674.402	2393.100
674.530	2361.812
674.658	2355.800
674.787	2330.637
674.915	2321.075
675.043	2357.175
675.171	2338.525
675.299	2329.787
675.427	2337.863
675.555	2327.062
675.683	2309.625
675.812	2308.488
675.940	2317.575
676.068	2337.988
676.196	2300.687
676.324	2318.350
676.452	2304.950
676.580	2288.925
676.708	2294.100
676.837	2344.838
676.965	2283.500
677.093	2296.637
677.221	2279.700
677.349	2271.812
677.477	2273.300
677.605	2261.975
677.733	2295.100
677.862	2257.725
677.990	2264.238
678.118	2257.000
678.246	2239.937
678.374	2219.637
678.502	2230.137
678.630	2209.963
678.758	2219.750
678.887	2223.162
679.015	2228.488
679.143	2218.750
679.271	2217.650
679.399	2223.137
679.527	2204.125
679.655	2204.588
679.783	2205.575
679.912	2206.437
680.040	2216.412
680.168	2219.825
680.296	2177.713
680.424	2211.825
680.552	2184.512
680.680	2203.725
680.808	2171.312
680.937	2172.437
681.065	2174.225
681.193	2168.275
681.321	2173.350
681.449	2173.600
681.577	2164.012
681.705	2147.525
681.833	2152.750
681.962	2138.075
682.090	2179.600
682.218	2150.637
682.346	2145.412
682.474	2153.975
682.602	2153.887
682.730	2144.262
682.858	2140.725
682.987	2135.562
683.115	2125.812
683.243	2116.750
683.371	2117.900
683.499	2102.012
683.627	2147.713
683.755	2127.825
683.883	2139.125
684.012	2114.363
684.140	2101.687
684.268	2101.250
684.396	2108.037
684.524	2114.225
684.652	2127.187
684.780	2121.200
684.908	2100.088
685.037	2091.025
685.165	2105.213
685.293	2098.750
685.421	2091.850
685.549	2080.437
685.677	2086.963
685.805	2084.463
685.933	2094.750
686.062	2072.525
686.190	2078.575
686.318	2100.488
686.446	2075.625
686.574	2063.875
686.702	2113.625
686.830	2081.637
686.958	2064.838
687.087	2067.000
687.215	2055.300
687.343	2048.950
687.471	2057.100
687.599	2043.037
687.727	2037.500
687.855	2069.725
687.983	2056.825
688.112	2045.362
688.240	2008.100
688.368	2051.925
688.496	2032.612
688.624	2039.375
688.752	2038.888
688.880	2027.450
689.008	2011.463
689.137	2011.300
689.265	2017.388
689.393	2004.187
689.521	2004.187
689.649	2009.700
689.777	2009.187
689.905	2019.838
690.033	2006.187
690.162	1986.338
690.290	1984.013
690.418	1991.888
690.546	1999.300
690.674	1999.700
690.802	1960.275
690.930	1961.737
691.058	1957.088
691.187	1948.100
691.315	1978.963
691.443	1956.263
691.571	1958.900
691.699	1937.550
691.827	1956.088
691.955	1944.275
692.083	1921.787
692.212	1924.850
692.340	1943.437
692.468	1929.850
692.596	1927.437
692.724	1918.463
692.852	1910.875
692.980	1893.937
693.108	1888.325
693.237	1886.900
693.365	1889.537
693.493	1873.412
693.621	1859.650
693.749	1882.513
693.877	1853.750
694.005	1855.300
694.133	1861.475
694.262	1849.850
694.390	1844.638
694.518	1805.225
694.646	1829.687
694.774	1832.100
694.902	1816.700
695.030	1853.800
695.158	1802.900
695.287	1819.187
695.415	1800.975
695.543	1805.725
695.671	1781.513
695.799	1790.775
695.927	1779.912
696.055	1787.050
696.183	1791.200
696.312	1774.338
696.440	1767.912
696.568	1764.450
696.696	1746.950
696.824	1755.588
696.952	1729.463
697.080	1730.200
697.208	1748.575
697.337	1708.713
697.465	1724.775
697.593	1712.025
697.721	1707.912
697.849	1717.825
697.977	1701.275
698.105	1718.362
698.233	1707.675
698.362	1686.562
698.490	1685.662
698.618	1688.950
698.746	1675.987
698.874	1674.263
699.002	1684.487
699.130	1662.213
699.258	1679.475
699.387	1641.088
699.515	1642.562
699.643	1665.875
699.771	1655.287
699.899	1645.388
700.027	1645.388
700.155	1642.650
700.283	1629.013
700.412	1617.575
700.540	1609.612
700.668	1600.225
700.796	1599.775
700.924	1591.513
701.052	1594.662
701.180	1605.888
701.308	1585.625
701.437	1566.700
701.565	1581.125
701.693	1561.787
701.821	1596.100
701.949	1581.550
702.077	1556.612
702.205	1560.325
702.333	1545.275
702.462	1543.412
702.590	1540.750
702.718	1547.187
702.846	1532.763
702.974	1533.912
703.102	1527.662
703.230	1528.537
703.358	1504.400
703.487	1507.463
703.615	1506.937
703.743	1498.075
703.871	1492.588
703.999	1473.112
704.127	1481.487
704.255	1474.175
704.383	1469.588
704.512	1459.425
704.640	1472.500
704.768	1452.350
704.896	1453.213
705.024	1450.187
705.152	1447.437
705.280	1430.537
705.408	1426.925
705.537	1438.500
705.665	1425.125
705.793	1424.162
705.921	1415.687
706.049	1424.338
706.177	1408.987
706.305	1406.050
706.433	1391.213
706.562	1397.213
706.690	1391.537
706.818	1376.263
706.946	1374.075
707.074	1378.037
707.202	1371.963
707.330	1355.037
707.458	1368.713
707.587	1346.300
707.715	1352.225
707.843	1339.925
707.971	1361.325
708.099	1347.463
708.227	1318.600
708.355	1321.225
708.483	1325.925
708.612	1330.237
708.740	1310.838
708.868	1309.950
708.996	1320.050
709.124	1312.500
709.252	1287.812
709.380	1284.787
709.508	1278.250
709.637	1292.800
709.765	1289.487
709.893	1276.263
710.021	1268.838
710.149	1271.725
710.277	1282.362
710.405	1266.263
710.533	1254.150
710.662	1258.400
710.790	1255.075
710.918	1244.888
711.046	1253.588
711.174	1239.287
711.302	1230.912
711.430	1231.700
711.558	1226.263
711.687	1214.400
711.815	1216.862
711.943	1230.925
712.071	1201.700
712.199	1212.175
712.327	1204.975
712.455	1188.838
712.583	1193.437
712.712	1201.987
712.840	1192.662
712.968	1187.400
713.096	1192.638
713.224	1183.950
713.352	1176.737
713.480	1160.650
713.608	1164.075
713.737	1155.775
713.865	1143.450
713.993	1142.888
714.121	1143.737
714.249	1148.025
714.377	1147.338
714.505	1137.325
714.633	1144.062
714.762	1122.850
714.890	1127.375
715.018	1122.388
715.146	1113.437
715.274	1110.937
715.402	1104.162
715.530	1112.912
715.658	1097.588
715.787	1108.487
715.915	1090.862
716.043	1092.513
716.171	1103.225
716.299	1109.325
716.427	1085.250
716.555	1081.125
716.683	1078.575
716.812	1070.838
716.940	1074.900
717.068	1039.937
717.196	1062.162
717.324	1056.412
717.452	1050.150
717.580	1039.388
717.708	1054.975
717.837	1064.775
717.965	1041.025
718.093	1034.300
718.221	1026.388
718.349	1034.588
718.477	1023.900
718.605	1008.150
718.733	1018.112
718.862	1004.625
718.990	1009.462
719.118	1013.275
719.246	993.138
719.374	1008.212
719.502	1005.837
719.630	999.875
719.758	995.987
719.887	984.712
720.015	988.625
720.143	978.862
720.271	986.925
720.399	968.150
720.527	979.225
720.655	967.163
720.783	956.888
720.912	961.300
721.040	968.525
721.168	954.187
721.296	955.413
721.424	945.388
721.552	947.325
721.680	940.075
721.808	948.112
721.937	938.962
722.065	925.562
722.193	916.050
722.321	926.775
722.449	906.612
722.577	915.950
722.705	908.125
722.833	902.475
722.962	913.237
723.090	890.237
723.218	890.100
723.346	895.538
723.474	899.487
723.602	883.862
723.730	874.900
723.858	886.000
723.987	879.337
724.115	868.737
724.243	871.212
724.371	867.925
724.499	870.975
724.627	863.350
724.755	863.975
724.883	866.163
725.012	850.225
725.140	853.687
725.268	844.138
725.396	843.737
725.524	837.475
725.652	838.375
725.780	830.288
725.908	824.475
726.037	828.612
726.165	824.475
726.293	804.550
726.421	807.300
726.549	817.812
726.677	801.663
726.805	800.638
726.933	800.200
727.062	788.337
727.190	784.825
727.318	783.150
727.446	791.000
727.574	784.237
727.702	787.763
727.830	761.288
727.958	785.413
728.087	764.187
728.215	769.275
728.343	766.062
728.471	761.263
728.599	758.812
728.727	758.800
728.855	756.200
728.983	748.062
729.112	741.388
729.240	749.663
729.368	733.500
729.496	734.650
729.624	738.375
729.752	730.612
729.880	727.538
730.008	733.500
730.137	726.025
730.265	729.862
730.393	723.725
730.521	707.187
730.649	712.612
730.777	713.513
730.905	698.600
731.033	700.200
731.162	704.125
731.290	701.163
731.418	694.100
731.546	714.687
731.674	683.400
731.802	690.712
731.930	692.850
732.058	687.413
732.187	688.212
732.315	675.000
732.443	678.575
732.571	672.862
732.699	671.462
732.827	669.250
732.955	664.850
733.083	665.288
733.212	655.100
733.340	664.388
733.468	656.437
733.596	651.325
733.724	648.862
733.852	645.187
733.980	648.312
734.108	644.100
734.237	650.437
734.365	638.337
734.493	645.875
734.621	632.187
734.749	645.325
734.877	629.425
735.005	620.650
735.133	629.237
735.262	630.900
735.390	629.312
735.518	621.962
735.646	621.737
735.774	614.638
735.902	611.587
736.030	614.112
