sample15_PS_at_750.00nm_cut_at_1008.00Y_01.dat
15.05.2023
12:32:51
cut middle at Y: 1008.00
top cursor: 1048 down cursor: 968 mean of: 80 lines , 2560 datapoints
wavelength(nm)	intensity[arb. units]
585.996	1928.450
586.124	1874.550
586.252	1864.525
586.380	1857.000
586.508	1853.625
586.637	1871.900
586.765	1862.263
586.893	1862.687
587.021	1868.925
587.149	1871.900
587.277	1857.225
587.405	1874.088
587.533	1840.662
587.662	1860.662
587.790	1890.775
587.918	1866.487
588.046	1868.500
588.174	1856.575
588.302	1882.250
588.430	1862.162
588.558	1871.000
588.687	1874.925
588.815	1893.537
588.943	1881.963
589.071	1863.350
589.199	1877.763
589.327	1867.875
589.455	1854.025
589.583	1860.475
589.712	1871.525
589.840	1866.850
589.968	1850.838
590.096	1849.775
590.224	1865.125
590.352	1849.687
590.480	1837.963
590.608	1860.975
590.737	1834.763
590.865	1858.963
590.993	1838.050
591.121	1842.650
591.249	1845.687
591.377	1832.800
591.505	1831.013
591.633	1842.600
591.762	1845.263
591.890	1847.862
592.018	1836.775
592.146	1854.125
592.274	1854.612
592.402	1839.687
592.530	1830.213
592.658	1846.050
592.787	1851.750
592.915	1832.450
593.043	1840.375
593.171	1850.550
593.299	1861.625
593.427	1844.812
593.555	1845.062
593.683	1833.437
593.812	1827.713
593.940	1860.825
594.068	1853.175
594.196	1875.888
594.324	1853.463
594.452	1884.100
594.580	1880.825
594.708	1860.300
594.837	1877.025
594.965	1873.912
595.093	1883.475
595.221	1868.937
595.349	1899.112
595.477	1871.537
595.605	1885.100
595.733	1902.225
595.862	1902.125
595.990	1888.025
596.118	1908.175
596.246	1924.400
596.374	1920.900
596.502	1942.600
596.630	1921.275
596.758	1929.475
596.887	1938.025
597.015	1956.875
597.143	1907.487
597.271	1939.625
597.399	1940.200
597.527	1936.925
597.655	1947.400
597.783	1943.275
597.912	1929.312
598.040	1928.600
598.168	1926.737
598.296	1928.787
598.424	1934.437
598.552	1932.575
598.680	1920.588
598.808	1916.275
598.937	1921.000
599.065	1927.138
599.193	1923.687
599.321	1901.425
599.449	1932.225
599.577	1905.375
599.705	1914.225
599.833	1911.825
599.962	1905.675
600.090	1905.263
600.218	1891.400
600.346	1921.963
600.474	1900.500
600.602	1900.437
600.730	1908.250
600.858	1908.725
600.987	1903.763
601.115	1895.175
601.243	1877.225
601.371	1899.550
601.499	1901.088
601.627	1917.575
601.755	1918.225
601.883	1896.287
602.012	1925.450
602.140	1913.112
602.268	1932.825
602.396	1933.162
602.524	1940.250
602.652	1955.963
602.780	1935.187
602.908	1955.800
603.037	1950.588
603.165	1953.450
603.293	1976.100
603.421	1977.463
603.549	1960.925
603.677	2003.312
603.805	1968.312
603.933	1996.838
604.062	1998.325
604.190	2020.700
604.318	2001.937
604.446	2032.162
604.574	2017.687
604.702	2026.500
604.830	2023.225
604.958	2056.787
605.087	2082.713
605.215	2071.262
605.343	2068.488
605.471	2071.912
605.599	2074.275
605.727	2083.475
605.855	2098.900
605.983	2081.450
606.112	2093.800
606.240	2105.400
606.368	2118.637
606.496	2149.713
606.624	2107.500
606.752	2129.950
606.880	2147.062
607.008	2174.363
607.137	2171.088
607.265	2134.775
607.393	2140.850
607.521	2171.238
607.649	2146.412
607.777	2138.125
607.905	2132.512
608.033	2178.125
608.162	2145.725
608.290	2158.687
608.418	2170.238
608.546	2156.562
608.674	2174.425
608.802	2134.588
608.930	2169.738
609.058	2160.200
609.187	2167.537
609.315	2170.325
609.443	2158.687
609.571	2180.137
609.699	2160.437
609.827	2164.937
609.955	2177.925
610.083	2165.500
610.212	2145.937
610.340	2148.150
610.468	2165.463
610.596	2178.400
610.724	2169.575
610.852	2161.850
610.980	2160.863
611.108	2175.262
611.237	2154.275
611.365	2176.400
611.493	2152.550
611.621	2173.988
611.749	2170.875
611.877	2187.838
612.005	2160.162
612.133	2183.025
612.262	2172.687
612.390	2190.800
612.518	2186.550
612.646	2197.750
612.774	2189.000
612.902	2194.887
613.030	2185.812
613.158	2220.187
613.287	2223.675
613.415	2219.300
613.543	2216.713
613.671	2210.375
613.799	2240.113
613.927	2216.037
614.055	2232.475
614.183	2262.700
614.312	2234.775
614.440	2265.100
614.568	2250.225
614.696	2252.412
614.824	2296.713
614.952	2246.075
615.080	2279.338
615.208	2265.338
615.337	2295.250
615.465	2282.488
615.593	2299.800
615.721	2308.025
615.849	2315.588
615.977	2319.713
616.105	2333.963
616.233	2328.812
616.362	2370.162
616.490	2332.562
616.618	2338.287
616.746	2351.912
616.874	2376.062
617.002	2372.187
617.130	2393.687
617.258	2404.562
617.387	2371.725
617.515	2371.838
617.643	2390.363
617.771	2390.762
617.899	2406.400
618.027	2392.275
618.155	2427.125
618.283	2400.550
618.412	2425.600
618.540	2435.562
618.668	2411.637
618.796	2429.475
618.924	2478.725
619.052	2429.537
619.180	2403.562
619.308	2444.162
619.437	2407.400
619.565	2445.537
619.693	2443.450
619.821	2448.312
619.949	2425.800
620.077	2450.762
620.205	2470.075
620.333	2459.625
620.462	2473.687
620.590	2495.213
620.718	2466.937
620.846	2504.625
620.974	2533.262
621.102	2484.012
621.230	2460.537
621.358	2541.225
621.487	2470.762
621.615	2497.425
621.743	2499.275
621.871	2490.650
621.999	2528.137
622.127	2488.250
622.255	2498.100
622.383	2495.300
622.512	2491.225
622.640	2571.450
622.768	2492.900
622.896	2487.050
623.024	2492.088
623.152	2528.975
623.280	2511.637
623.408	2485.537
623.537	2501.025
623.665	2499.137
623.793	2535.437
623.921	2478.625
624.049	2487.025
624.177	2517.425
624.305	2519.975
624.433	2527.125
624.562	2512.225
624.690	2513.600
624.818	2552.937
624.946	2608.787
625.074	2544.437
625.202	2520.363
625.330	2517.887
625.458	2546.225
625.587	2509.750
625.715	2548.425
625.843	2582.363
625.971	2532.500
626.099	2545.187
626.227	2531.150
626.355	2521.900
626.483	2565.175
626.612	2512.800
626.740	2525.475
626.868	2557.037
626.996	2523.600
627.124	2532.350
627.252	2521.213
627.380	2563.713
627.508	2553.187
627.637	2547.225
627.765	2560.963
627.893	2564.562
628.021	2549.425
628.149	2582.625
628.277	2595.675
628.405	2636.412
628.533	2547.963
628.662	2592.463
628.790	2582.725
628.918	2577.975
629.046	2585.937
629.174	2585.887
629.302	2660.675
629.430	2598.800
629.558	2604.200
629.687	2614.125
629.815	2626.375
629.943	2639.725
630.071	2642.750
630.199	2637.750
630.327	2652.675
630.455	2624.262
630.583	2703.037
630.712	2695.113
630.840	2663.200
630.968	2708.287
631.096	2669.338
631.224	2665.650
631.352	2675.750
631.480	2699.325
631.608	2707.600
631.737	2748.650
631.865	2815.775
631.993	2699.250
632.121	2783.300
632.249	2773.175
632.377	2762.338
632.505	2760.012
632.633	2722.262
632.762	2779.863
632.890	2838.975
633.018	2752.275
633.146	2759.375
633.274	2779.775
633.402	2765.437
633.530	2752.762
633.658	2860.088
633.787	2739.950
633.915	2815.575
634.043	2794.338
634.171	2771.463
634.299	2820.812
634.427	2837.713
634.555	2811.363
634.683	2795.250
634.812	2792.500
634.940	2811.400
635.068	2777.000
635.196	2825.550
635.324	2815.287
635.452	2841.000
635.580	2806.088
635.708	2805.387
635.837	2835.275
635.965	2827.050
636.093	2830.175
636.221	2797.075
636.349	2849.175
636.477	2787.037
636.605	2895.713
636.733	2775.713
636.862	2793.650
636.990	2789.850
637.118	2848.162
637.246	2811.975
637.374	2797.613
637.502	2782.025
637.630	2783.025
637.758	2794.562
637.887	2785.762
638.015	2783.787
638.143	2794.025
638.271	2779.912
638.399	2774.662
638.527	2767.512
638.655	2760.588
638.783	2862.238
638.912	2797.713
639.040	2772.637
639.168	2772.137
639.296	2770.900
639.424	2869.950
639.552	2753.500
639.680	2797.338
639.808	2799.000
639.937	2735.200
640.065	2754.113
640.193	2815.050
640.321	2758.975
640.449	2815.625
640.577	2828.575
640.705	2754.175
640.833	2843.363
640.962	2762.588
641.090	2761.725
641.218	2766.425
641.346	2764.238
641.474	2787.875
641.602	2771.437
641.730	2764.675
641.858	2769.437
641.987	2802.500
642.115	2775.412
642.243	2817.225
642.371	2817.275
642.499	2792.887
642.627	2791.175
642.755	2835.912
642.883	2841.250
643.012	2792.350
643.140	2777.912
643.268	2800.100
643.396	2814.575
643.524	2892.725
643.652	2797.900
643.780	2818.062
643.908	2825.537
644.037	2892.338
644.165	2800.937
644.293	2828.687
644.421	2802.100
644.549	2873.187
644.677	2823.725
644.805	2867.762
644.933	2818.850
645.062	2834.700
645.190	2843.500
645.318	2868.537
645.446	2865.262
645.574	2874.738
645.702	2857.675
645.830	2945.225
645.958	2853.650
646.087	2966.525
646.215	2851.887
646.343	2959.850
646.471	2891.588
646.599	2922.963
646.727	2871.200
646.855	2883.650
646.983	2902.975
647.112	2871.687
647.240	2984.262
647.368	2875.500
647.496	2901.500
647.624	2860.463
647.752	2875.025
647.880	2881.725
648.008	2876.525
648.137	2872.800
648.265	2860.937
648.393	2873.512
648.521	2906.325
648.649	2888.400
648.777	2858.713
648.905	2856.537
649.033	2861.950
649.162	2865.000
649.290	2873.963
649.418	2901.637
649.546	2861.125
649.674	2921.425
649.802	2879.738
649.930	2943.738
650.058	2829.200
650.187	2858.650
650.315	2837.875
650.443	2884.387
650.571	2855.625
650.699	2832.625
650.827	2838.562
650.955	2845.150
651.083	2849.613
651.212	2872.700
651.340	2869.812
651.468	2854.637
651.596	2827.037
651.724	2823.812
651.852	2818.800
651.980	2783.488
652.108	2893.650
652.237	2821.762
652.365	2858.963
652.493	2800.275
652.621	2808.725
652.749	2848.637
652.877	2801.475
653.005	2823.875
653.133	2789.950
653.262	2836.937
653.390	2783.137
653.518	2863.025
653.646	2807.887
653.774	2892.787
653.902	2822.825
654.030	2773.075
654.158	2788.375
654.287	2778.225
654.415	2794.812
654.543	2794.588
654.671	2803.012
654.799	2768.075
654.927	2774.150
655.055	2743.950
655.183	2769.787
655.312	2750.312
655.440	2772.225
655.568	2751.475
655.696	2805.050
655.824	2814.050
655.952	2763.200
656.080	2732.100
656.208	2822.350
656.337	2752.525
656.465	2767.700
656.593	2765.562
656.721	2769.287
656.849	2792.850
656.977	2729.100
657.105	2727.150
657.233	2711.500
657.362	2721.500
657.490	2718.637
657.618	2712.387
657.746	2706.963
657.874	2699.512
658.002	2687.637
658.130	2718.713
658.258	2695.400
658.387	2716.825
658.515	2676.363
658.643	2728.113
658.771	2684.725
658.899	2699.387
659.027	2688.775
659.155	2688.338
659.283	2773.100
659.412	2687.937
659.540	2733.838
659.668	2686.550
659.796	2676.963
659.924	2731.937
660.052	2658.637
660.180	2686.775
660.308	2674.162
660.437	2678.213
660.565	2646.937
660.693	2639.338
660.821	2652.525
660.949	2650.475
661.077	2643.062
661.205	2659.975
661.333	2617.637
661.462	2709.900
661.590	2658.488
661.718	2706.575
661.846	2672.850
661.974	2720.850
662.102	2646.137
662.230	2662.637
662.358	2635.262
662.487	2629.850
662.615	2604.187
662.743	2596.912
662.871	2625.175
662.999	2598.738
663.127	2591.200
663.255	2657.012
663.383	2652.150
663.512	2578.650
663.640	2598.850
663.768	2590.713
663.896	2603.912
664.024	2611.325
664.152	2600.512
664.280	2612.062
664.408	2598.838
664.537	2619.400
664.665	2569.412
664.793	2560.925
664.921	2561.125
665.049	2560.950
665.177	2580.900
665.305	2579.025
665.433	2569.812
665.562	2562.863
665.690	2582.787
665.818	2623.575
665.946	2586.975
666.074	2559.863
666.202	2540.287
666.330	2565.637
666.458	2561.238
666.587	2525.863
666.715	2556.800
666.843	2544.275
666.971	2538.150
667.099	2537.575
667.227	2534.100
667.355	2539.475
667.483	2523.275
667.612	2536.988
667.740	2540.262
667.868	2562.713
667.996	2538.325
668.124	2528.537
668.252	2517.762
668.380	2504.475
668.508	2535.675
668.637	2508.825
668.765	2513.200
668.893	2534.375
669.021	2502.350
669.149	2522.637
669.277	2517.312
669.405	2501.437
669.533	2511.887
669.662	2579.338
669.790	2487.637
669.918	2519.225
670.046	2488.250
670.174	2523.575
670.302	2520.225
670.430	2473.325
670.558	2501.225
670.687	2484.000
670.815	2532.575
670.943	2458.000
671.071	2456.425
671.199	2475.137
671.327	2437.475
671.455	2455.262
671.583	2437.537
671.712	2473.537
671.840	2428.062
671.968	2428.275
672.096	2427.575
672.224	2416.800
672.352	2467.550
672.480	2418.637
672.608	2398.863
672.737	2399.812
672.865	2426.637
672.993	2407.963
673.121	2387.750
673.249	2393.100
673.377	2378.675
673.505	2387.787
673.633	2367.162
673.762	2350.562
673.890	2363.800
674.018	2425.262
674.146	2347.187
674.274	2376.037
674.402	2404.375
674.530	2339.175
674.658	2344.937
674.787	2328.525
674.915	2314.825
675.043	2337.937
675.171	2331.075
675.299	2324.100
675.427	2301.262
675.555	2299.025
675.683	2288.775
675.812	2281.800
675.940	2283.238
676.068	2302.075
676.196	2280.475
676.324	2276.988
676.452	2272.375
676.580	2263.738
676.708	2258.537
676.837	2277.550
676.965	2248.025
677.093	2261.213
677.221	2219.500
677.349	2209.050
677.477	2226.613
677.605	2207.175
677.733	2234.613
677.862	2208.162
677.990	2202.175
678.118	2193.075
678.246	2185.775
678.374	2173.675
678.502	2169.325
678.630	2166.787
678.758	2168.725
678.887	2175.912
679.015	2166.363
679.143	2146.113
679.271	2144.625
679.399	2153.700
679.527	2130.675
679.655	2130.675
679.783	2145.700
679.912	2131.400
680.040	2132.238
680.168	2117.687
680.296	2090.738
680.424	2111.613
680.552	2105.588
680.680	2119.037
680.808	2086.437
680.937	2080.662
681.065	2102.412
681.193	2086.150
681.321	2083.250
681.449	2091.687
681.577	2066.825
681.705	2059.412
681.833	2044.638
681.962	2036.525
682.090	2084.238
682.218	2042.737
682.346	2042.150
682.474	2044.562
682.602	2048.812
682.730	2037.787
682.858	2022.825
682.987	2054.500
683.115	2029.662
683.243	2006.362
683.371	2012.412
683.499	2003.675
683.627	2024.662
683.755	1993.987
683.883	2027.487
684.012	1998.312
684.140	1986.588
684.268	1990.787
684.396	1989.338
684.524	1980.912
684.652	2001.187
684.780	1986.675
684.908	1988.050
685.037	1976.950
685.165	1970.987
685.293	1966.088
685.421	1960.600
685.549	1953.687
685.677	1974.500
685.805	1965.162
685.933	1974.037
686.062	1936.750
686.190	1944.237
686.318	1965.537
686.446	1949.838
686.574	1924.900
686.702	1954.237
686.830	1943.713
686.958	1923.388
687.087	1919.575
687.215	1911.025
687.343	1910.800
687.471	1916.838
687.599	1899.850
687.727	1923.575
687.855	1922.912
687.983	1899.975
688.112	1917.187
688.240	1881.725
688.368	1886.612
688.496	1895.875
688.624	1893.687
688.752	1858.875
688.880	1862.112
689.008	1878.750
689.137	1858.037
689.265	1863.650
689.393	1843.025
689.521	1848.425
689.649	1858.487
689.777	1844.562
689.905	1853.825
690.033	1852.162
690.162	1832.187
690.290	1828.250
690.418	1829.650
690.546	1855.437
690.674	1845.937
690.802	1817.662
690.930	1822.725
691.058	1806.888
691.187	1803.763
691.315	1809.187
691.443	1811.062
691.571	1789.600
691.699	1761.975
691.827	1786.925
691.955	1777.750
692.083	1771.400
692.212	1781.550
692.340	1783.325
692.468	1775.025
692.596	1763.650
692.724	1761.775
692.852	1736.737
692.980	1754.900
693.108	1736.225
693.237	1717.475
693.365	1727.100
693.493	1710.537
693.621	1698.225
693.749	1698.463
693.877	1696.650
694.005	1685.900
694.133	1700.412
694.262	1688.375
694.390	1674.437
694.518	1646.500
694.646	1669.650
694.774	1652.525
694.902	1651.025
695.030	1671.763
695.158	1625.925
695.287	1650.400
695.415	1632.237
695.543	1621.937
695.671	1626.850
695.799	1608.787
695.927	1604.200
696.055	1599.013
696.183	1621.888
696.312	1607.600
696.440	1598.050
696.568	1582.925
696.696	1575.638
696.824	1572.200
696.952	1578.175
697.080	1556.037
697.208	1576.025
697.337	1549.112
697.465	1535.287
697.593	1537.025
697.721	1546.662
697.849	1528.375
697.977	1533.437
698.105	1535.650
698.233	1514.725
698.362	1511.487
698.490	1507.963
698.618	1507.750
698.746	1502.463
698.874	1505.138
699.002	1503.350
699.130	1497.500
699.258	1483.625
699.387	1468.062
699.515	1474.912
699.643	1492.025
699.771	1472.763
699.899	1455.650
700.027	1454.588
700.155	1452.275
700.283	1459.338
700.412	1442.537
700.540	1427.150
700.668	1436.700
700.796	1429.612
700.924	1413.612
701.052	1416.463
701.180	1422.662
701.308	1413.937
701.437	1396.500
701.565	1398.638
701.693	1394.425
701.821	1407.487
701.949	1402.412
702.077	1371.525
702.205	1392.625
702.333	1378.687
702.462	1369.200
702.590	1366.862
702.718	1373.388
702.846	1354.687
702.974	1371.875
703.102	1342.650
703.230	1345.912
703.358	1346.925
703.487	1318.750
703.615	1341.200
703.743	1322.900
703.871	1328.963
703.999	1301.850
704.127	1306.900
704.255	1300.200
704.383	1302.463
704.512	1288.900
704.640	1297.425
704.768	1276.862
704.896	1280.687
705.024	1280.625
705.152	1273.875
705.280	1259.250
705.408	1256.862
705.537	1259.588
705.665	1257.025
705.793	1239.537
705.921	1239.237
706.049	1255.900
706.177	1234.775
706.305	1238.275
706.433	1218.912
706.562	1216.537
706.690	1217.075
706.818	1205.525
706.946	1206.925
707.074	1207.713
707.202	1181.850
707.330	1202.088
707.458	1191.638
707.587	1193.800
707.715	1188.287
707.843	1176.975
707.971	1186.200
708.099	1181.550
708.227	1146.487
708.355	1150.450
708.483	1156.025
708.612	1151.588
708.740	1146.937
708.868	1141.325
708.996	1145.300
709.124	1149.900
709.252	1137.888
709.380	1128.575
709.508	1115.963
709.637	1117.450
709.765	1121.138
709.893	1106.463
710.021	1111.275
710.149	1093.362
710.277	1114.088
710.405	1108.838
710.533	1084.550
710.662	1085.575
710.790	1099.013
710.918	1088.237
711.046	1085.625
711.174	1078.787
711.302	1075.237
711.430	1067.425
711.558	1082.950
711.687	1066.675
711.815	1054.475
711.943	1068.062
712.071	1058.937
712.199	1042.088
712.327	1043.912
712.455	1046.562
712.583	1046.088
712.712	1051.450
712.840	1040.612
712.968	1024.050
713.096	1029.275
713.224	1028.513
713.352	1022.862
713.480	1014.775
713.608	1011.525
713.737	1005.725
713.865	995.875
713.993	1002.050
714.121	997.600
714.249	1004.100
714.377	990.750
714.505	988.913
714.633	979.275
714.762	983.075
714.890	980.825
715.018	976.212
715.146	967.013
715.274	967.413
715.402	965.975
715.530	963.087
715.658	952.100
715.787	952.525
715.915	951.800
716.043	938.300
716.171	951.712
716.299	961.862
716.427	945.462
716.555	943.600
716.683	941.150
716.812	934.075
716.940	934.900
717.068	915.062
717.196	925.263
717.324	919.763
717.452	912.862
717.580	916.250
717.708	904.112
717.837	916.237
717.965	908.750
718.093	901.337
718.221	899.913
718.349	895.000
718.477	889.888
718.605	883.075
718.733	890.763
718.862	877.500
718.990	874.400
719.118	883.175
719.246	886.888
719.374	872.500
719.502	879.462
719.630	881.875
719.758	868.750
719.887	858.575
720.015	877.250
720.143	848.875
720.271	860.375
720.399	849.538
720.527	856.212
720.655	844.388
720.783	833.888
720.912	832.875
721.040	847.812
721.168	828.163
721.296	835.125
721.424	822.275
721.552	823.263
721.680	823.150
721.808	833.013
721.937	823.650
722.065	823.100
722.193	802.487
722.321	818.087
722.449	808.788
722.577	811.638
722.705	799.462
722.833	801.725
722.962	807.375
723.090	782.687
723.218	788.375
723.346	788.437
723.474	792.250
723.602	783.675
723.730	781.400
723.858	785.975
723.987	777.650
724.115	769.962
724.243	771.038
724.371	770.138
724.499	764.750
724.627	761.650
724.755	763.900
724.883	762.975
725.012	757.288
725.140	756.638
725.268	754.275
725.396	742.062
725.524	742.550
725.652	740.225
725.780	730.525
725.908	739.350
726.037	730.337
726.165	735.175
726.293	723.538
726.421	724.737
726.549	725.062
726.677	726.587
726.805	721.700
726.933	726.062
727.062	708.500
727.190	703.862
727.318	705.862
727.446	705.775
727.574	712.413
727.702	702.475
727.830	691.312
727.958	701.275
728.087	687.187
728.215	684.312
728.343	685.725
728.471	686.112
728.599	679.788
728.727	687.638
728.855	679.125
728.983	670.513
729.112	674.038
729.240	681.663
729.368	666.587
729.496	676.575
729.624	676.925
729.752	658.812
729.880	660.725
730.008	664.937
730.137	656.513
730.265	660.800
730.393	651.925
730.521	655.663
730.649	647.275
730.777	646.263
730.905	642.437
731.033	636.950
731.162	642.462
731.290	641.950
731.418	640.100
731.546	653.712
731.674	627.650
731.802	624.362
731.930	633.850
732.058	627.175
732.187	623.263
732.315	622.788
732.443	622.062
732.571	611.687
732.699	612.638
732.827	613.325
732.955	611.562
733.083	605.625
733.212	599.725
733.340	607.275
733.468	607.462
733.596	602.788
733.724	593.962
733.852	607.413
733.980	594.937
734.108	601.350
734.237	604.513
734.365	583.475
734.493	596.100
734.621	585.075
734.749	586.038
734.877	588.525
735.005	580.913
735.133	584.150
735.262	588.125
735.390	582.288
735.518	573.250
735.646	575.038
735.774	571.638
735.902	570.925
736.030	574.962
736.158	576.250
736.287	563.487
736.415	572.450
