sample2_PP_at_750.00nm_cut_at_1008.00Y_02.dat
15.05.2023
10:57:01
cut middle at Y: 1008.00
top cursor: 1048 down cursor: 968 mean of: 80 lines , 2560 datapoints
wavelength(nm)	intensity[arb. units]
585.996	1188.888
586.124	1158.787
586.252	1155.812
586.380	1148.463
586.508	1160.750
586.637	1164.900
586.765	1152.638
586.893	1165.638
587.021	1172.287
587.149	1185.900
587.277	1184.638
587.405	1191.975
587.533	1178.612
587.662	1191.812
587.790	1202.750
587.918	1205.412
588.046	1204.162
588.174	1192.425
588.302	1215.125
588.430	1197.138
588.558	1205.325
588.687	1201.263
588.815	1231.638
588.943	1214.850
589.071	1216.862
589.199	1225.138
589.327	1214.975
589.455	1209.713
589.583	1220.713
589.712	1229.375
589.840	1235.912
589.968	1233.375
590.096	1237.375
590.224	1238.675
590.352	1233.500
590.480	1233.050
590.608	1242.612
590.737	1236.025
590.865	1247.437
590.993	1244.138
591.121	1252.750
591.249	1258.463
591.377	1250.287
591.505	1240.987
591.633	1254.500
591.762	1268.987
591.890	1260.325
592.018	1275.100
592.146	1274.325
592.274	1289.888
592.402	1273.537
592.530	1279.687
592.658	1292.838
592.787	1279.487
592.915	1278.225
593.043	1289.650
593.171	1301.037
593.299	1313.062
593.427	1297.687
593.555	1307.362
593.683	1302.463
593.812	1320.612
593.940	1316.713
594.068	1315.412
594.196	1362.862
594.324	1317.062
594.452	1347.463
594.580	1356.650
594.708	1337.850
594.837	1355.050
594.965	1361.187
595.093	1384.388
595.221	1367.675
595.349	1387.638
595.477	1380.162
595.605	1387.162
595.733	1425.775
595.862	1392.125
595.990	1396.500
596.118	1414.963
596.246	1412.675
596.374	1433.100
596.502	1452.187
596.630	1439.263
596.758	1445.763
596.887	1454.825
597.015	1463.713
597.143	1455.763
597.271	1465.175
597.399	1470.763
597.527	1475.400
597.655	1475.750
597.783	1485.650
597.912	1472.075
598.040	1486.850
598.168	1491.763
598.296	1492.213
598.424	1494.050
598.552	1497.350
598.680	1492.513
598.808	1492.187
598.937	1516.775
599.065	1509.838
599.193	1518.312
599.321	1502.213
599.449	1530.150
599.577	1510.437
599.705	1510.037
599.833	1509.463
599.962	1517.450
600.090	1520.750
600.218	1528.100
600.346	1525.062
600.474	1540.987
600.602	1537.588
600.730	1537.138
600.858	1554.412
600.987	1557.275
601.115	1560.000
601.243	1541.162
601.371	1571.437
601.499	1567.513
601.627	1569.425
601.755	1580.325
601.883	1589.088
602.012	1612.125
602.140	1595.838
602.268	1618.325
602.396	1618.412
602.524	1623.450
602.652	1642.975
602.780	1644.237
602.908	1657.575
603.037	1666.037
603.165	1673.700
603.293	1685.912
603.421	1687.412
603.549	1701.437
603.677	1724.775
603.805	1701.862
603.933	1727.312
604.062	1736.200
604.190	1761.575
604.318	1752.013
604.446	1779.825
604.574	1784.225
604.702	1795.400
604.830	1800.975
604.958	1816.463
605.087	1847.763
605.215	1843.050
605.343	1856.638
605.471	1861.575
605.599	1873.162
605.727	1880.612
605.855	1904.013
605.983	1890.463
606.112	1929.888
606.240	1921.025
606.368	1929.650
606.496	1936.350
606.624	1936.463
606.752	1952.338
606.880	1961.187
607.008	1985.862
607.137	1994.775
607.265	1984.475
607.393	2019.537
607.521	1999.375
607.649	2001.225
607.777	2001.987
607.905	2018.612
608.033	2022.775
608.162	2026.475
608.290	2030.425
608.418	2051.850
608.546	2068.037
608.674	2071.000
608.802	2064.062
608.930	2072.175
609.058	2064.025
609.187	2083.475
609.315	2085.275
609.443	2085.912
609.571	2110.625
609.699	2097.725
609.827	2101.925
609.955	2108.662
610.083	2123.537
610.212	2113.925
610.340	2123.262
610.468	2139.537
610.596	2151.900
610.724	2140.050
610.852	2151.225
610.980	2146.775
611.108	2166.937
611.237	2159.350
611.365	2171.012
611.493	2163.387
611.621	2178.187
611.749	2194.613
611.877	2210.700
612.005	2218.137
612.133	2217.025
612.262	2199.850
612.390	2229.213
612.518	2243.700
612.646	2263.113
612.774	2248.800
612.902	2262.937
613.030	2257.937
613.158	2309.100
613.287	2319.675
613.415	2297.100
613.543	2300.950
613.671	2305.512
613.799	2329.287
613.927	2328.850
614.055	2356.875
614.183	2426.912
614.312	2344.262
614.440	2433.887
614.568	2372.450
614.696	2390.525
614.824	2493.213
614.952	2414.713
615.080	2416.537
615.208	2466.162
615.337	2451.287
615.465	2475.562
615.593	2491.887
615.721	2518.525
615.849	2520.012
615.977	2538.363
616.105	2564.300
616.233	2533.625
616.362	2604.437
616.490	2548.050
616.618	2558.700
616.746	2611.312
616.874	2640.812
617.002	2621.200
617.130	2672.488
617.258	2739.912
617.387	2649.775
617.515	2634.875
617.643	2665.900
617.771	2723.200
617.899	2735.200
618.027	2706.963
618.155	2797.963
618.283	2704.338
618.412	2754.113
618.540	2816.175
618.668	2784.075
618.796	2783.500
618.924	2890.162
619.052	2801.975
619.180	2790.875
619.308	2812.363
619.437	2854.088
619.565	2834.863
619.693	2825.762
619.821	2857.650
619.949	2854.838
620.077	2912.900
620.205	2917.725
620.333	2928.338
620.462	2941.387
620.590	2989.312
620.718	2906.912
620.846	3012.025
620.974	3020.250
621.102	2969.162
621.230	2928.787
621.358	3067.312
621.487	2982.963
621.615	2993.475
621.743	3030.912
621.871	3027.575
621.999	3110.475
622.127	3046.512
622.255	3048.425
622.383	3054.025
622.512	3062.338
622.640	3201.338
622.768	3051.650
622.896	3079.600
623.024	3080.375
623.152	3171.512
623.280	3143.312
623.408	3108.300
623.537	3136.600
623.665	3122.175
623.793	3182.350
623.921	3128.187
624.049	3150.412
624.177	3156.287
624.305	3196.250
624.433	3213.175
624.562	3209.775
624.690	3234.937
624.818	3273.387
624.946	3395.213
625.074	3283.725
625.202	3234.787
625.330	3231.463
625.458	3304.850
625.587	3273.287
625.715	3330.900
625.843	3422.588
625.971	3326.912
626.099	3296.062
626.227	3328.412
626.355	3307.713
626.483	3402.137
626.612	3307.725
626.740	3337.075
626.868	3393.800
626.996	3354.162
627.124	3361.437
627.252	3375.375
627.380	3426.150
627.508	3416.175
627.637	3391.400
627.765	3421.838
627.893	3450.475
628.021	3426.025
628.149	3470.412
628.277	3485.400
628.405	3545.937
628.533	3468.488
628.662	3541.500
628.790	3496.600
628.918	3513.575
629.046	3551.700
629.174	3536.137
629.302	3671.312
629.430	3558.850
629.558	3583.350
629.687	3619.137
629.815	3605.575
629.943	3661.550
630.071	3656.463
630.199	3662.325
630.327	3656.963
630.455	3661.863
630.583	3752.825
630.712	3718.800
630.840	3721.387
630.968	3780.588
631.096	3745.650
631.224	3746.275
631.352	3764.437
631.480	3814.213
631.608	3783.450
631.737	3910.050
631.865	3966.150
631.993	3840.925
632.121	3951.575
632.249	3929.238
632.377	3930.113
632.505	3922.687
632.633	3863.125
632.762	3939.762
632.890	4025.137
633.018	3929.687
633.146	3974.950
633.274	4016.437
633.402	3986.088
633.530	3967.387
633.658	4120.212
633.787	3972.975
633.915	4054.600
634.043	4006.838
634.171	4023.588
634.299	4057.238
634.427	4136.988
634.555	4091.662
634.683	4057.338
634.812	4044.575
634.940	4072.850
635.068	4052.162
635.196	4072.562
635.324	4094.088
635.452	4168.663
635.580	4085.050
635.708	4088.113
635.837	4132.187
635.965	4142.325
636.093	4115.613
636.221	4107.163
636.349	4190.387
636.477	4071.775
636.605	4266.538
636.733	4077.113
636.862	4108.750
636.990	4122.300
637.118	4190.250
637.246	4164.750
637.374	4117.500
637.502	4129.937
637.630	4096.812
637.758	4137.762
637.887	4097.600
638.015	4110.600
638.143	4120.300
638.271	4115.050
638.399	4095.738
638.527	4116.887
638.655	4126.675
638.783	4257.113
638.912	4141.913
639.040	4124.012
639.168	4173.100
639.296	4142.150
639.424	4251.850
639.552	4099.913
639.680	4145.587
639.808	4184.062
639.937	4105.575
640.065	4117.525
640.193	4213.200
640.321	4120.550
640.449	4189.812
640.577	4231.087
640.705	4133.325
640.833	4275.613
640.962	4150.337
641.090	4156.175
641.218	4121.850
641.346	4169.762
641.474	4208.387
641.602	4157.062
641.730	4154.950
641.858	4187.550
641.987	4213.312
642.115	4174.238
642.243	4233.175
642.371	4226.350
642.499	4210.825
642.627	4246.887
642.755	4272.337
642.883	4292.225
643.012	4246.062
643.140	4200.913
643.268	4254.413
643.396	4262.850
643.524	4377.925
643.652	4247.962
643.780	4252.700
643.908	4251.387
644.037	4403.125
644.165	4272.000
644.293	4289.450
644.421	4268.113
644.549	4347.500
644.677	4284.650
644.805	4336.812
644.933	4275.613
645.062	4291.100
645.190	4316.913
645.318	4400.250
645.446	4330.375
645.574	4352.937
645.702	4315.000
645.830	4489.312
645.958	4282.762
646.087	4505.675
646.215	4341.038
646.343	4493.500
646.471	4423.863
646.599	4403.150
646.727	4345.550
646.855	4365.025
646.983	4370.337
647.112	4336.625
647.240	4521.775
647.368	4362.550
647.496	4412.650
647.624	4317.700
647.752	4327.312
647.880	4336.700
648.008	4345.937
648.137	4329.525
648.265	4326.800
648.393	4323.450
648.521	4353.275
648.649	4352.450
648.777	4383.587
648.905	4300.700
649.033	4338.025
649.162	4353.125
649.290	4335.863
649.418	4346.512
649.546	4349.525
649.674	4399.712
649.802	4323.613
649.930	4447.387
650.058	4271.525
650.187	4306.525
650.315	4260.075
650.443	4346.125
650.571	4267.750
650.699	4253.887
650.827	4235.500
650.955	4284.488
651.083	4279.312
651.212	4329.750
651.340	4315.600
651.468	4245.837
651.596	4218.200
651.724	4208.437
651.852	4215.462
651.980	4185.038
652.108	4295.413
652.237	4239.913
652.365	4271.325
652.493	4157.475
652.621	4172.087
652.749	4243.200
652.877	4146.413
653.005	4180.387
653.133	4155.750
653.262	4202.512
653.390	4113.062
653.518	4212.113
653.646	4144.850
653.774	4310.725
653.902	4152.062
654.030	4075.312
654.158	4092.850
654.287	4084.162
654.415	4110.025
654.543	4089.950
654.671	4148.462
654.799	4093.025
654.927	4045.937
655.055	4036.613
655.183	4069.062
655.312	4047.287
655.440	4069.100
655.568	3999.700
655.696	4096.425
655.824	4115.663
655.952	4027.863
656.080	3973.213
656.208	4130.788
656.337	3992.137
656.465	3992.012
656.593	4009.025
656.721	3981.562
656.849	4011.550
656.977	3950.738
657.105	3956.037
657.233	3914.075
657.362	3921.450
657.490	3894.537
657.618	3921.537
657.746	3914.300
657.874	3880.262
658.002	3831.762
658.130	3893.412
658.258	3826.762
658.387	3876.425
658.515	3824.537
658.643	3875.062
658.771	3829.613
658.899	3838.775
659.027	3828.850
659.155	3826.600
659.283	3968.450
659.412	3827.775
659.540	3902.637
659.668	3803.875
659.796	3817.575
659.924	3842.262
660.052	3775.275
660.180	3791.050
660.308	3780.575
660.437	3757.287
660.565	3748.963
660.693	3732.400
660.821	3719.150
660.949	3718.700
661.077	3720.488
661.205	3718.162
661.333	3697.963
661.462	3785.812
661.590	3720.775
661.718	3853.125
661.846	3758.463
661.974	3819.912
662.102	3699.363
662.230	3703.950
662.358	3666.912
662.487	3660.550
662.615	3631.187
662.743	3615.213
662.871	3621.488
662.999	3600.450
663.127	3595.437
663.255	3717.800
663.383	3695.250
663.512	3570.750
663.640	3597.662
663.768	3547.812
663.896	3592.575
664.024	3616.300
664.152	3570.525
664.280	3588.963
664.408	3595.463
664.537	3591.350
664.665	3507.012
664.793	3493.312
664.921	3497.625
665.049	3512.037
665.177	3532.250
665.305	3538.312
665.433	3512.787
665.562	3483.387
665.690	3517.213
665.818	3672.062
665.946	3515.000
666.074	3494.437
666.202	3450.075
666.330	3497.562
666.458	3462.713
666.587	3425.512
666.715	3415.475
666.843	3419.925
666.971	3379.350
667.099	3420.937
667.227	3411.838
667.355	3431.463
667.483	3400.700
667.612	3421.850
667.740	3421.037
667.868	3444.437
667.996	3399.400
668.124	3347.000
668.252	3351.125
668.380	3361.500
668.508	3379.650
668.637	3349.812
668.765	3336.800
668.893	3375.450
669.021	3290.175
669.149	3359.200
669.277	3379.162
669.405	3314.187
669.533	3283.200
669.662	3520.312
669.790	3289.437
669.918	3361.625
670.046	3271.950
670.174	3359.325
670.302	3308.037
670.430	3271.175
670.558	3331.875
670.687	3254.850
670.815	3386.213
670.943	3203.363
671.071	3202.988
671.199	3249.137
671.327	3198.363
671.455	3206.187
671.583	3181.900
671.712	3331.200
671.840	3190.537
671.968	3151.812
672.096	3161.137
672.224	3115.588
672.352	3302.150
672.480	3136.100
672.608	3105.700
672.737	3083.875
672.865	3275.850
672.993	3085.762
673.121	3055.325
673.249	3053.050
673.377	3036.575
673.505	3032.600
673.633	3019.250
673.762	3024.750
673.890	3010.088
674.018	3231.088
674.146	3001.325
674.274	2994.412
674.402	3171.838
674.530	2998.925
674.658	3002.650
674.787	2944.950
674.915	2913.475
675.043	3000.287
675.171	2980.925
675.299	2912.600
675.427	2948.750
675.555	2873.162
675.683	2871.575
675.812	2893.238
675.940	2876.725
676.068	2883.338
676.196	2829.200
676.324	2874.100
676.452	2888.900
676.580	2820.725
676.708	2870.838
676.837	2904.037
676.965	2789.012
677.093	2800.125
677.221	2787.113
677.349	2831.863
677.477	2881.113
677.605	2776.950
677.733	2849.350
677.862	2736.762
677.990	2713.162
678.118	2725.525
678.246	2721.787
678.374	2725.988
678.502	2694.463
678.630	2659.637
678.758	2646.738
678.887	2669.988
679.015	2678.750
679.143	2649.488
679.271	2645.937
679.399	2652.387
679.527	2660.088
679.655	2594.875
679.783	2635.100
679.912	2616.075
680.040	2633.450
680.168	2614.062
680.296	2618.250
680.424	2579.475
680.552	2601.963
680.680	2644.950
680.808	2559.012
680.937	2550.963
681.065	2548.200
681.193	2554.262
681.321	2566.250
681.449	2536.675
681.577	2538.325
681.705	2558.613
681.833	2528.463
681.962	2497.975
682.090	2615.463
682.218	2487.050
682.346	2499.875
682.474	2509.738
682.602	2505.325
682.730	2492.162
682.858	2477.575
682.987	2511.000
683.115	2476.775
683.243	2449.887
683.371	2462.200
683.499	2442.562
683.627	2488.037
683.755	2464.675
683.883	2504.738
684.012	2452.850
684.140	2429.262
684.268	2435.787
684.396	2433.900
684.524	2435.613
684.652	2453.238
684.780	2442.650
684.908	2429.137
685.037	2411.775
685.165	2391.637
685.293	2402.937
685.421	2396.738
685.549	2380.863
685.677	2385.400
685.805	2395.225
685.933	2375.213
686.062	2354.675
686.190	2370.213
686.318	2389.037
686.446	2361.687
686.574	2336.588
686.702	2383.463
686.830	2350.713
686.958	2348.675
687.087	2345.775
687.215	2324.113
687.343	2321.512
687.471	2345.537
687.599	2311.200
687.727	2302.437
687.855	2318.375
687.983	2314.463
688.112	2324.437
688.240	2290.863
688.368	2296.850
688.496	2302.725
688.624	2288.400
688.752	2279.162
688.880	2274.675
689.008	2253.238
689.137	2269.875
689.265	2253.550
689.393	2229.825
689.521	2238.562
689.649	2231.887
689.777	2233.425
689.905	2232.238
690.033	2230.363
690.162	2217.175
690.290	2204.850
690.418	2210.762
690.546	2226.338
690.674	2217.162
690.802	2178.662
690.930	2180.088
691.058	2171.850
691.187	2154.925
691.315	2178.575
691.443	2149.000
691.571	2148.113
691.699	2128.787
691.827	2139.225
691.955	2122.625
692.083	2106.113
692.212	2112.875
692.340	2115.363
692.468	2105.738
692.596	2085.375
692.724	2098.075
692.852	2088.775
692.980	2077.363
693.108	2068.350
693.237	2065.175
693.365	2051.750
693.493	2047.537
693.621	2023.138
693.749	2034.000
693.877	2004.687
694.005	2006.338
694.133	2031.487
694.262	2005.763
694.390	1999.200
694.518	1964.263
694.646	1978.112
694.774	1969.825
694.902	1961.662
695.030	2000.375
695.158	1947.025
695.287	1934.987
695.415	1925.075
695.543	1923.950
695.671	1920.250
695.799	1910.112
695.927	1906.787
696.055	1894.325
696.183	1925.612
696.312	1888.550
696.440	1881.325
696.568	1876.487
696.696	1858.475
696.824	1855.062
696.952	1860.412
697.080	1839.375
697.208	1862.575
697.337	1817.338
697.465	1812.237
697.593	1826.463
697.721	1814.225
697.849	1808.175
697.977	1809.750
698.105	1800.175
698.233	1802.588
698.362	1771.513
698.490	1770.000
698.618	1780.138
698.746	1759.437
698.874	1776.250
699.002	1764.025
699.130	1741.862
699.258	1750.138
699.387	1719.800
699.515	1717.287
699.643	1723.412
699.771	1716.175
699.899	1712.287
700.027	1708.388
700.155	1701.200
700.283	1690.575
700.412	1680.775
700.540	1673.513
700.668	1663.975
700.796	1661.575
700.924	1632.950
701.052	1638.787
701.180	1639.787
701.308	1639.125
701.437	1627.225
701.565	1621.912
701.693	1604.075
701.821	1632.388
701.949	1605.812
702.077	1588.325
702.205	1592.900
702.333	1578.625
702.462	1586.700
702.590	1577.412
702.718	1571.800
702.846	1565.800
702.974	1561.812
703.102	1554.300
703.230	1552.812
703.358	1526.850
703.487	1524.963
703.615	1535.362
703.743	1505.325
703.871	1522.713
703.999	1485.187
704.127	1496.325
704.255	1494.088
704.383	1483.687
704.512	1467.638
704.640	1468.213
704.768	1450.375
704.896	1458.362
705.024	1441.250
705.152	1445.912
705.280	1446.187
705.408	1437.138
705.537	1423.138
705.665	1418.900
705.793	1407.062
705.921	1396.775
706.049	1410.888
706.177	1390.562
706.305	1381.575
706.433	1376.250
706.562	1368.675
706.690	1366.300
706.818	1345.287
706.946	1359.600
707.074	1363.487
707.202	1342.775
707.330	1340.612
707.458	1338.362
707.587	1318.300
707.715	1316.812
707.843	1309.650
707.971	1316.650
708.099	1311.800
708.227	1287.013
708.355	1294.975
708.483	1302.187
708.612	1278.763
708.740	1284.263
708.868	1261.250
708.996	1270.037
709.124	1282.525
709.252	1256.138
709.380	1248.162
709.508	1229.000
709.637	1226.850
709.765	1233.412
709.893	1214.875
710.021	1229.300
710.149	1210.437
710.277	1224.412
710.405	1210.838
710.533	1190.612
710.662	1194.275
710.790	1206.750
710.918	1190.463
711.046	1180.100
711.174	1192.787
711.302	1173.537
711.430	1160.525
711.558	1170.425
711.687	1156.737
711.815	1149.912
711.943	1159.638
712.071	1141.000
712.199	1146.662
712.327	1134.075
712.455	1125.750
712.583	1131.875
712.712	1134.975
712.840	1115.775
712.968	1106.875
713.096	1107.662
713.224	1104.112
713.352	1101.175
713.480	1086.713
713.608	1092.825
713.737	1068.300
713.865	1073.787
713.993	1067.525
714.121	1064.612
714.249	1069.838
714.377	1048.950
714.505	1057.825
714.633	1035.575
714.762	1033.638
714.890	1038.487
715.018	1043.500
715.146	1021.987
715.274	1023.413
715.402	1015.937
715.530	1025.513
715.658	1011.962
715.787	1005.325
715.915	1008.413
716.043	986.475
716.171	1005.625
716.299	1013.625
716.427	990.437
716.555	1003.725
716.683	981.237
716.812	982.575
716.940	983.862
717.068	949.950
717.196	964.062
717.324	954.737
717.452	960.250
717.580	940.862
717.708	941.350
717.837	952.763
717.965	940.400
718.093	925.225
718.221	921.862
718.349	932.112
718.477	927.325
718.605	903.062
718.733	912.225
718.862	897.312
718.990	895.038
719.118	896.038
719.246	889.925
719.374	886.388
719.502	886.725
719.630	897.212
719.758	880.263
719.887	868.138
720.015	873.587
720.143	866.212
720.271	865.937
720.399	855.788
720.527	856.288
720.655	846.837
720.783	837.812
720.912	848.225
721.040	848.288
721.168	837.288
721.296	833.450
721.424	829.675
721.552	819.675
721.680	818.237
721.808	823.337
721.937	824.687
722.065	804.075
722.193	794.750
722.321	793.413
722.449	784.175
722.577	791.700
722.705	783.275
722.833	778.900
722.962	790.812
723.090	773.450
723.218	769.050
723.346	761.375
723.474	768.663
723.602	767.413
723.730	743.712
723.858	761.013
723.987	750.325
724.115	741.538
724.243	746.000
724.371	740.800
724.499	733.312
724.627	725.525
724.755	731.487
724.883	729.500
725.012	725.362
725.140	713.425
725.268	720.000
725.396	711.388
725.524	700.212
725.652	705.062
725.780	694.375
725.908	692.700
726.037	689.300
726.165	680.163
726.293	677.400
726.421	669.312
726.549	678.087
726.677	671.312
726.805	677.538
726.933	671.263
727.062	661.013
727.190	657.850
727.318	655.175
727.446	652.425
727.574	655.587
727.702	652.212
727.830	646.150
727.958	639.700
728.087	635.475
728.215	634.500
728.343	634.625
728.471	628.712
728.599	612.050
728.727	630.975
728.855	617.075
728.983	618.138
729.112	608.187
729.240	611.525
729.368	609.337
729.496	601.612
729.624	603.950
729.752	589.862
729.880	601.112
730.008	593.987
730.137	593.263
730.265	582.025
730.393	581.638
730.521	577.062
730.649	579.425
730.777	576.413
730.905	567.038
731.033	573.263
731.162	558.200
731.290	567.475
731.418	562.050
731.546	576.750
731.674	554.362
731.802	549.362
731.930	556.475
732.058	547.175
732.187	548.525
732.315	538.225
732.443	540.050
732.571	530.288
732.699	530.850
732.827	530.675
732.955	526.587
733.083	517.550
733.212	520.538
733.340	520.875
733.468	517.013
733.596	520.925
733.724	509.950
733.852	512.125
733.980	495.200
734.108	508.613
734.237	516.888
734.365	503.187
734.493	503.687
734.621	488.075
734.749	502.500
734.877	488.000
735.005	489.225
735.133	490.812
735.262	491.375
735.390	480.900
735.518	485.325
735.646	477.425
735.774	469.087
735.902	479.725
736.030	477.512
736.158	477.750
736.287	469.712
