sample14_PP_at_750.00nm_cut_at_1008.00Y_01.dat
15.05.2023
12:31:58
cut middle at Y: 1008.00
top cursor: 1048 down cursor: 968 mean of: 80 lines , 2560 datapoints
wavelength(nm)	intensity[arb. units]
585.996	1363.437
586.124	1334.838
586.252	1322.750
586.380	1329.050
586.508	1341.200
586.637	1340.950
586.765	1337.463
586.893	1344.800
587.021	1358.213
587.149	1353.463
587.277	1346.787
587.405	1359.025
587.533	1354.775
587.662	1354.287
587.790	1375.600
587.918	1369.850
588.046	1363.475
588.174	1350.638
588.302	1372.213
588.430	1353.338
588.558	1358.750
588.687	1359.737
588.815	1400.025
588.943	1381.138
589.071	1365.525
589.199	1384.100
589.327	1374.875
589.455	1349.600
589.583	1368.362
589.712	1383.213
589.840	1369.562
589.968	1376.025
590.096	1376.525
590.224	1371.450
590.352	1372.725
590.480	1387.112
590.608	1390.713
590.737	1372.713
590.865	1386.325
590.993	1398.338
591.121	1389.450
591.249	1398.875
591.377	1379.325
591.505	1391.112
591.633	1380.200
591.762	1392.025
591.890	1394.263
592.018	1384.975
592.146	1391.500
592.274	1408.525
592.402	1386.450
592.530	1401.000
592.658	1406.388
592.787	1391.062
592.915	1399.500
593.043	1406.650
593.171	1418.687
593.299	1427.000
593.427	1422.900
593.555	1428.263
593.683	1419.763
593.812	1404.763
593.940	1423.487
594.068	1428.763
594.196	1446.362
594.324	1419.675
594.452	1437.088
594.580	1467.338
594.708	1429.600
594.837	1458.550
594.965	1460.800
595.093	1468.737
595.221	1461.350
595.349	1471.588
595.477	1468.750
595.605	1462.125
595.733	1486.287
595.862	1468.800
595.990	1480.425
596.118	1487.350
596.246	1481.475
596.374	1508.500
596.502	1510.000
596.630	1504.125
596.758	1503.300
596.887	1505.888
597.015	1527.263
597.143	1492.475
597.271	1506.725
597.399	1519.237
597.527	1513.900
597.655	1513.600
597.783	1526.388
597.912	1514.588
598.040	1532.312
598.168	1511.737
598.296	1519.412
598.424	1517.237
598.552	1528.263
598.680	1522.562
598.808	1516.450
598.937	1530.275
599.065	1534.675
599.193	1521.850
599.321	1507.237
599.449	1533.500
599.577	1527.125
599.705	1502.025
599.833	1519.500
599.962	1521.150
600.090	1526.425
600.218	1521.450
600.346	1524.638
600.474	1527.550
600.602	1526.287
600.730	1532.912
600.858	1544.475
600.987	1526.088
601.115	1522.075
601.243	1522.362
601.371	1527.525
601.499	1538.325
601.627	1542.325
601.755	1543.687
601.883	1552.338
602.012	1556.125
602.140	1552.638
602.268	1554.900
602.396	1569.838
602.524	1557.375
602.652	1567.575
602.780	1572.463
602.908	1585.463
603.037	1572.300
603.165	1586.037
603.293	1597.787
603.421	1606.838
603.549	1593.425
603.677	1622.312
603.805	1604.375
603.933	1624.275
604.062	1611.362
604.190	1641.088
604.318	1608.362
604.446	1638.900
604.574	1644.200
604.702	1633.312
604.830	1634.562
604.958	1651.250
605.087	1673.125
605.215	1665.888
605.343	1683.062
605.471	1671.112
605.599	1674.662
605.727	1670.100
605.855	1683.662
605.983	1682.900
606.112	1701.763
606.240	1717.037
606.368	1720.775
606.496	1715.500
606.624	1705.025
606.752	1717.150
606.880	1720.338
607.008	1731.925
607.137	1731.213
607.265	1736.513
607.393	1746.475
607.521	1745.550
607.649	1733.425
607.777	1721.475
607.905	1736.612
608.033	1746.662
608.162	1747.875
608.290	1732.412
608.418	1749.537
608.546	1739.312
608.674	1763.138
608.802	1742.950
608.930	1759.037
609.058	1752.000
609.187	1746.037
609.315	1747.987
609.443	1763.537
609.571	1764.487
609.699	1762.537
609.827	1757.638
609.955	1765.362
610.083	1760.525
610.212	1751.000
610.340	1746.225
610.468	1739.263
610.596	1768.800
610.724	1762.125
610.852	1776.425
610.980	1768.075
611.108	1777.425
611.237	1770.675
611.365	1778.375
611.493	1767.650
611.621	1788.625
611.749	1785.275
611.877	1797.263
612.005	1790.400
612.133	1777.737
612.262	1799.550
612.390	1805.537
612.518	1809.513
612.646	1783.100
612.774	1804.575
612.902	1807.713
613.030	1807.812
613.158	1832.513
613.287	1849.437
613.415	1827.750
613.543	1829.550
613.671	1846.213
613.799	1856.838
613.927	1835.350
614.055	1842.450
614.183	1858.525
614.312	1852.575
614.440	1865.612
614.568	1861.588
614.696	1882.713
614.824	1880.862
614.952	1866.150
615.080	1895.187
615.208	1900.450
615.337	1896.013
615.465	1897.013
615.593	1915.937
615.721	1919.475
615.849	1930.700
615.977	1932.987
616.105	1916.875
616.233	1943.737
616.362	1958.088
616.490	1945.662
616.618	1955.537
616.746	1944.612
616.874	1967.550
617.002	1975.650
617.130	1983.900
617.258	1968.400
617.387	1977.525
617.515	1999.513
617.643	2011.737
617.771	1995.963
617.899	2011.888
618.027	2003.338
618.155	2007.950
618.283	1997.350
618.412	2011.412
618.540	2013.375
618.668	2022.838
618.796	2023.950
618.924	2020.225
619.052	2031.775
619.180	2032.575
619.308	2047.838
619.437	2018.812
619.565	2040.250
619.693	2030.750
619.821	2037.925
619.949	2033.100
620.077	2038.638
620.205	2040.513
620.333	2064.875
620.462	2058.887
620.590	2076.475
620.718	2052.775
620.846	2055.437
620.974	2113.800
621.102	2070.025
621.230	2071.175
621.358	2096.650
621.487	2087.525
621.615	2087.713
621.743	2117.713
621.871	2099.238
621.999	2068.488
622.127	2086.537
622.255	2093.387
622.383	2090.775
622.512	2098.250
622.640	2106.537
622.768	2105.100
622.896	2103.725
623.024	2097.550
623.152	2117.137
623.280	2101.412
623.408	2111.200
623.537	2109.100
623.665	2129.637
623.793	2128.637
623.921	2108.262
624.049	2116.825
624.177	2132.775
624.305	2123.613
624.433	2150.750
624.562	2160.825
624.690	2141.625
624.818	2150.963
624.946	2178.738
625.074	2162.713
625.202	2165.912
625.330	2166.312
625.458	2174.088
625.587	2160.300
625.715	2160.225
625.843	2161.088
625.971	2160.575
626.099	2191.750
626.227	2196.550
626.355	2174.613
626.483	2197.175
626.612	2169.100
626.740	2181.488
626.868	2207.200
626.996	2189.713
627.124	2192.338
627.252	2173.250
627.380	2212.863
627.508	2198.900
627.637	2207.363
627.765	2212.350
627.893	2259.625
628.021	2230.187
628.149	2244.762
628.277	2262.050
628.405	2256.650
628.533	2244.187
628.662	2244.550
628.790	2241.925
628.918	2247.375
629.046	2250.875
629.174	2243.325
629.302	2273.662
629.430	2276.787
629.558	2275.363
629.687	2292.762
629.815	2277.825
629.943	2278.812
630.071	2300.187
630.199	2309.187
630.327	2280.575
630.455	2279.588
630.583	2343.225
630.712	2349.312
630.840	2311.275
630.968	2352.387
631.096	2340.187
631.224	2328.162
631.352	2348.500
631.480	2351.925
631.608	2357.625
631.737	2388.762
631.865	2421.375
631.993	2368.912
632.121	2397.037
632.249	2401.025
632.377	2418.137
632.505	2406.500
632.633	2374.562
632.762	2417.825
632.890	2447.863
633.018	2405.300
633.146	2421.150
633.274	2423.887
633.402	2421.912
633.530	2418.637
633.658	2472.700
633.787	2413.475
633.915	2456.475
634.043	2436.637
634.171	2449.875
634.299	2462.412
634.427	2462.550
634.555	2458.950
634.683	2457.262
634.812	2437.675
634.940	2468.687
635.068	2440.687
635.196	2464.213
635.324	2483.350
635.452	2499.350
635.580	2455.863
635.708	2455.463
635.837	2485.900
635.965	2476.412
636.093	2466.150
636.221	2456.963
636.349	2492.750
636.477	2448.500
636.605	2506.588
636.733	2441.738
636.862	2441.425
636.990	2461.713
637.118	2482.062
637.246	2460.700
637.374	2456.450
637.502	2448.425
637.630	2436.700
637.758	2464.800
637.887	2459.762
638.015	2456.200
638.143	2466.875
638.271	2464.162
638.399	2451.437
638.527	2447.125
638.655	2430.213
638.783	2514.312
638.912	2478.475
639.040	2455.312
639.168	2477.500
639.296	2467.562
639.424	2503.350
639.552	2477.312
639.680	2489.988
639.808	2478.537
639.937	2450.937
640.065	2466.750
640.193	2504.863
640.321	2478.225
640.449	2510.387
640.577	2513.412
640.705	2457.300
640.833	2506.225
640.962	2492.937
641.090	2487.350
641.218	2499.437
641.346	2494.488
641.474	2495.500
641.602	2471.088
641.730	2518.162
641.858	2494.463
641.987	2506.075
642.115	2499.075
642.243	2536.988
642.371	2532.137
642.499	2515.425
642.627	2515.400
642.755	2558.838
642.883	2573.363
643.012	2543.150
643.140	2546.575
643.268	2541.312
643.396	2553.463
643.524	2617.338
643.652	2563.100
643.780	2556.150
643.908	2558.488
644.037	2594.850
644.165	2560.912
644.293	2589.725
644.421	2567.787
644.549	2605.562
644.677	2602.500
644.805	2602.675
644.933	2572.387
645.062	2593.800
645.190	2609.687
645.318	2597.037
645.446	2625.800
645.574	2625.300
645.702	2618.400
645.830	2699.113
645.958	2628.963
646.087	2686.250
646.215	2617.287
646.343	2720.963
646.471	2645.037
646.599	2678.088
646.727	2631.350
646.855	2654.500
646.983	2681.937
647.112	2655.238
647.240	2730.037
647.368	2656.950
647.496	2694.213
647.624	2644.500
647.752	2656.937
647.880	2670.875
648.008	2667.175
648.137	2656.287
648.265	2664.150
648.393	2654.512
648.521	2696.887
648.649	2679.950
648.777	2669.762
648.905	2676.300
649.033	2669.200
649.162	2674.225
649.290	2664.250
649.418	2690.075
649.546	2688.000
649.674	2711.600
649.802	2677.637
649.930	2725.537
650.058	2643.675
650.187	2687.488
650.315	2660.950
650.443	2719.037
650.571	2671.312
650.699	2668.738
650.827	2680.725
650.955	2673.900
651.083	2688.600
651.212	2695.213
651.340	2715.363
651.468	2677.887
651.596	2684.325
651.724	2670.363
651.852	2671.225
651.980	2648.500
652.108	2737.613
652.237	2665.437
652.365	2698.925
652.493	2643.738
652.621	2669.687
652.749	2721.550
652.877	2653.088
653.005	2680.162
653.133	2664.800
653.262	2678.775
653.390	2649.250
653.518	2728.025
653.646	2653.863
653.774	2754.500
653.902	2674.887
654.030	2658.637
654.158	2653.025
654.287	2662.150
654.415	2694.012
654.543	2673.887
654.671	2698.000
654.799	2664.338
654.927	2676.963
655.055	2655.300
655.183	2660.275
655.312	2657.925
655.440	2683.387
655.568	2655.937
655.696	2708.812
655.824	2739.238
655.952	2679.338
656.080	2650.250
656.208	2772.350
656.337	2690.475
656.465	2683.825
656.593	2722.125
656.721	2686.162
656.849	2730.950
656.977	2695.887
657.105	2699.562
657.233	2661.113
657.362	2675.412
657.490	2677.162
657.618	2690.975
657.746	2677.100
657.874	2660.350
658.002	2635.863
658.130	2697.637
658.258	2657.850
658.387	2691.875
658.515	2661.325
658.643	2710.213
658.771	2675.250
658.899	2693.787
659.027	2699.738
659.155	2701.025
659.283	2789.562
659.412	2695.275
659.540	2748.387
659.668	2679.988
659.796	2705.525
659.924	2745.400
660.052	2678.150
660.180	2717.875
660.308	2706.625
660.437	2701.750
660.565	2685.937
660.693	2679.075
660.821	2690.088
660.949	2688.762
661.077	2693.500
661.205	2707.025
661.333	2664.125
661.462	2766.963
661.590	2738.425
661.718	2828.500
661.846	2759.975
661.974	2819.475
662.102	2724.937
662.230	2749.762
662.358	2712.812
662.487	2724.213
662.615	2704.537
662.743	2686.900
662.871	2735.175
662.999	2698.488
663.127	2697.850
663.255	2782.950
663.383	2804.850
663.512	2716.062
663.640	2707.750
663.768	2722.675
663.896	2745.937
664.024	2790.000
664.152	2729.687
664.280	2756.550
664.408	2750.225
664.537	2777.488
664.665	2709.387
664.793	2709.387
664.921	2711.375
665.049	2753.137
665.177	2749.988
665.305	2723.350
665.433	2757.387
665.562	2713.650
665.690	2748.838
665.818	2864.025
665.946	2784.113
666.074	2747.775
666.202	2746.238
666.330	2770.400
666.458	2768.100
666.587	2718.150
666.715	2754.775
666.843	2724.675
666.971	2703.525
667.099	2774.937
667.227	2750.812
667.355	2784.863
667.483	2746.937
667.612	2768.637
667.740	2779.088
667.868	2852.488
667.996	2782.787
668.124	2750.488
668.252	2751.312
668.380	2739.475
668.508	2775.863
668.637	2774.400
668.765	2746.750
668.893	2816.512
669.021	2750.037
669.149	2818.725
669.277	2827.988
669.405	2748.900
669.533	2764.988
669.662	2975.325
669.790	2776.187
669.918	2856.075
670.046	2778.500
670.174	2863.012
670.302	2828.000
670.430	2800.550
670.558	2865.512
670.687	2789.975
670.815	2936.525
670.943	2726.588
671.071	2786.338
671.199	2828.850
671.327	2763.162
671.455	2805.900
671.583	2769.425
671.712	2954.375
671.840	2784.225
671.968	2778.687
672.096	2804.225
672.224	2760.250
672.352	2913.437
672.480	2775.238
672.608	2751.037
672.737	2772.363
672.865	2917.175
672.993	2784.137
673.121	2739.412
673.249	2778.200
673.377	2728.950
673.505	2766.850
673.633	2773.088
673.762	2731.437
673.890	2756.238
674.018	2935.150
674.146	2773.137
674.274	2764.850
674.402	2892.775
674.530	2774.550
674.658	2772.750
674.787	2734.375
674.915	2707.162
675.043	2789.812
675.171	2771.387
675.299	2743.488
675.427	2778.800
675.555	2748.475
675.683	2731.863
675.812	2734.700
675.940	2747.525
676.068	2763.787
676.196	2739.812
676.324	2715.562
676.452	2763.838
676.580	2728.887
676.708	2761.412
676.837	2810.725
676.965	2702.062
677.093	2746.250
677.221	2714.175
677.349	2760.325
677.477	2790.838
677.605	2743.662
677.733	2778.238
677.862	2698.963
677.990	2711.600
678.118	2713.988
678.246	2735.312
678.374	2699.550
678.502	2692.787
678.630	2668.100
678.758	2681.375
678.887	2709.450
679.015	2688.062
679.143	2693.225
679.271	2696.113
679.399	2708.375
679.527	2705.425
679.655	2679.812
679.783	2696.412
679.912	2697.200
680.040	2704.488
680.168	2698.175
680.296	2724.575
680.424	2667.012
680.552	2687.437
680.680	2739.000
680.808	2675.463
680.937	2689.588
681.065	2678.825
681.193	2697.150
681.321	2701.562
681.449	2678.963
681.577	2691.437
681.705	2701.312
681.833	2681.800
681.962	2660.650
682.090	2761.875
682.218	2667.900
682.346	2670.475
682.474	2689.475
682.602	2701.950
682.730	2694.387
682.858	2667.575
682.987	2725.125
683.115	2692.062
683.243	2680.262
683.371	2666.363
683.499	2667.613
683.627	2725.912
683.755	2715.338
683.883	2795.287
684.012	2684.162
684.140	2682.738
684.268	2676.975
684.396	2697.287
684.524	2708.912
684.652	2748.425
684.780	2744.037
684.908	2711.350
685.037	2671.562
685.165	2693.162
685.293	2679.675
685.421	2750.500
685.549	2685.800
685.677	2697.838
685.805	2778.675
685.933	2729.975
686.062	2681.387
686.190	2682.025
686.318	2741.725
686.446	2708.275
686.574	2690.975
686.702	2799.900
686.830	2681.000
686.958	2689.812
687.087	2717.175
687.215	2739.687
687.343	2690.037
687.471	2716.588
687.599	2702.437
687.727	2804.150
687.855	2733.500
687.983	2726.575
688.112	2785.187
688.240	2705.662
688.368	2690.562
688.496	2723.475
688.624	2780.450
688.752	2669.287
688.880	2712.975
689.008	2720.437
689.137	2718.213
689.265	2702.113
689.393	2688.125
689.521	2686.075
689.649	2701.625
689.777	2688.525
689.905	2693.225
690.033	2708.300
690.162	2698.787
690.290	2698.287
690.418	2711.000
690.546	2721.488
690.674	2756.150
690.802	2683.613
690.930	2724.125
691.058	2716.137
691.187	2701.575
691.315	2682.400
691.443	2755.988
691.571	2704.125
691.699	2697.475
691.827	2751.925
691.955	2676.600
692.083	2704.200
692.212	2777.937
692.340	2688.312
692.468	2699.675
692.596	2712.762
692.724	2768.887
692.852	2675.262
692.980	2703.625
693.108	2666.088
693.237	2659.825
693.365	2664.000
693.493	2657.738
693.621	2647.725
693.749	2644.037
693.877	2642.800
694.005	2685.800
694.133	2657.825
694.262	2684.650
694.390	2660.187
694.518	2628.450
694.646	2647.812
694.774	2655.912
694.902	2695.575
695.030	2701.088
695.158	2618.937
695.287	2642.387
695.415	2630.150
695.543	2654.262
695.671	2663.000
695.799	2620.925
695.927	2643.500
696.055	2641.850
696.183	2650.687
696.312	2639.213
696.440	2703.675
696.568	2661.937
696.696	2607.387
696.824	2604.900
696.952	2622.875
697.080	2589.662
697.208	2597.637
697.337	2627.238
697.465	2604.650
697.593	2570.975
697.721	2597.238
697.849	2613.975
697.977	2613.637
698.105	2622.875
698.233	2605.512
698.362	2582.537
698.490	2582.975
698.618	2592.700
698.746	2630.500
698.874	2618.738
699.002	2654.100
699.130	2605.088
699.258	2604.312
699.387	2562.175
699.515	2601.437
699.643	2587.488
699.771	2624.900
699.899	2579.050
700.027	2597.425
700.155	2578.287
700.283	2580.238
700.412	2566.475
700.540	2580.450
700.668	2565.637
700.796	2550.363
700.924	2562.900
701.052	2564.750
701.180	2597.700
701.308	2587.000
701.437	2538.750
701.565	2532.963
701.693	2531.738
701.821	2559.637
701.949	2553.437
702.077	2539.037
702.205	2553.937
702.333	2547.725
702.462	2548.637
702.590	2544.275
702.718	2545.025
702.846	2533.213
702.974	2537.475
703.102	2539.975
703.230	2554.312
703.358	2521.213
703.487	2500.800
703.615	2557.863
703.743	2501.150
703.871	2504.700
703.999	2499.687
704.127	2519.037
704.255	2496.012
704.383	2549.588
704.512	2497.375
704.640	2509.875
704.768	2465.037
704.896	2508.575
705.024	2481.275
705.152	2502.738
705.280	2478.387
705.408	2476.963
705.537	2487.562
705.665	2471.537
705.793	2483.963
705.921	2468.863
706.049	2484.925
706.177	2474.550
706.305	2455.187
706.433	2484.262
706.562	2458.238
706.690	2449.225
706.818	2449.425
706.946	2484.225
707.074	2452.213
707.202	2424.900
707.330	2442.762
707.458	2434.325
707.587	2434.787
707.715	2432.625
707.843	2419.312
707.971	2444.012
708.099	2441.312
708.227	2414.062
708.355	2414.025
708.483	2427.963
708.612	2425.262
708.740	2430.062
708.868	2401.925
708.996	2413.512
709.124	2419.187
709.252	2408.975
709.380	2382.537
709.508	2384.150
709.637	2397.300
709.765	2384.550
709.893	2364.213
710.021	2396.900
710.149	2391.650
710.277	2402.175
710.405	2398.025
710.533	2376.700
710.662	2371.425
710.790	2368.512
710.918	2384.838
711.046	2377.150
711.174	2385.525
711.302	2360.050
711.430	2371.363
711.558	2376.137
711.687	2358.375
711.815	2364.338
711.943	2371.400
712.071	2373.262
712.199	2370.000
712.327	2373.363
712.455	2350.738
712.583	2364.575
712.712	2387.375
712.840	2356.700
712.968	2349.825
713.096	2374.437
713.224	2349.762
713.352	2349.725
713.480	2325.200
713.608	2331.662
713.737	2340.637
713.865	2320.125
713.993	2333.137
714.121	2319.500
714.249	2315.512
714.377	2333.475
714.505	2345.250
714.633	2344.012
714.762	2315.525
714.890	2319.387
715.018	2319.437
715.146	2307.225
715.274	2329.800
715.402	2328.175
715.530	2340.375
715.658	2305.525
715.787	2325.825
715.915	2341.437
716.043	2289.187
716.171	2338.088
716.299	2364.750
716.427	2308.425
716.555	2320.975
716.683	2294.800
716.812	2298.600
716.940	2301.238
717.068	2270.650
717.196	2323.025
717.324	2295.287
717.452	2309.550
717.580	2288.375
717.708	2277.300
717.837	2304.325
717.965	2294.250
718.093	2287.425
718.221	2263.525
718.349	2274.713
718.477	2278.650
718.605	2274.338
718.733	2284.975
718.862	2253.500
718.990	2262.700
719.118	2266.500
719.246	2250.588
719.374	2266.988
719.502	2271.325
719.630	2261.162
719.758	2255.662
719.887	2257.575
720.015	2273.875
720.143	2246.637
720.271	2256.125
720.399	2261.187
720.527	2239.662
720.655	2252.738
720.783	2226.400
720.912	2225.262
721.040	2251.213
721.168	2234.787
721.296	2235.412
721.424	2236.000
721.552	2215.825
721.680	2236.125
721.808	2231.200
721.937	2233.238
722.065	2214.762
722.193	2203.387
722.321	2217.537
722.449	2189.738
722.577	2193.537
722.705	2186.213
722.833	2199.062
722.962	2187.325
723.090	2189.463
723.218	2177.137
723.346	2187.113
723.474	2187.387
723.602	2190.088
723.730	2180.675
723.858	2175.575
723.987	2192.787
724.115	2165.512
724.243	2160.375
724.371	2174.450
724.499	2173.100
724.627	2155.812
724.755	2158.363
724.883	2164.250
725.012	2134.238
725.140	2141.988
725.268	2151.550
725.396	2144.213
725.524	2124.700
725.652	2140.875
725.780	2124.963
725.908	2123.100
726.037	2147.412
726.165	2108.713
726.293	2099.363
726.421	2103.025
726.549	2102.363
726.677	2109.937
726.805	2100.875
726.933	2103.338
727.062	2082.575
727.190	2079.850
727.318	2082.925
727.446	2075.812
727.574	2093.050
727.702	2102.850
727.830	2062.838
727.958	2083.200
728.087	2059.412
728.215	2072.400
728.343	2061.600
728.471	2074.662
728.599	2049.825
728.727	2051.300
728.855	2052.012
728.983	2042.088
729.112	2032.675
729.240	2037.713
729.368	2020.888
729.496	2034.500
729.624	2025.900
729.752	2023.400
729.880	2020.750
730.008	2024.075
730.137	2006.412
730.265	2026.675
730.393	2013.950
730.521	2010.362
730.649	2013.025
730.777	2004.588
730.905	1984.963
731.033	2002.237
731.162	1998.737
731.290	2002.650
731.418	2003.900
731.546	1997.412
731.674	1990.450
731.802	1983.338
731.930	1996.325
732.058	1994.975
732.187	1978.213
732.315	1979.213
732.443	1994.787
732.571	1973.062
732.699	1976.588
732.827	1958.612
732.955	1943.025
733.083	1975.162
733.212	1956.963
733.340	1960.888
733.468	1966.463
733.596	1965.062
733.724	1950.250
733.852	1956.112
733.980	1952.750
734.108	1956.400
734.237	1982.437
734.365	1930.650
734.493	1952.513
734.621	1931.150
734.749	1958.162
734.877	1938.912
735.005	1950.737
