sample6_PS_at_750.00nm_cut_at_1008.00Y_01.dat
15.05.2023
11:02:44
cut middle at Y: 1008.00
top cursor: 1048 down cursor: 968 mean of: 80 lines , 2560 datapoints
wavelength(nm)	intensity[arb. units]
585.996	1726.737
586.124	1702.375
586.252	1680.550
586.380	1659.237
586.508	1675.500
586.637	1681.862
586.765	1679.112
586.893	1693.013
587.021	1698.600
587.149	1701.200
587.277	1699.750
587.405	1711.162
587.533	1696.675
587.662	1721.225
587.790	1725.787
587.918	1720.900
588.046	1725.513
588.174	1717.875
588.302	1734.812
588.430	1719.987
588.558	1742.625
588.687	1725.900
588.815	1761.150
588.943	1753.662
589.071	1740.888
589.199	1742.937
589.327	1734.325
589.455	1722.612
589.583	1742.625
589.712	1757.787
589.840	1753.062
589.968	1737.138
590.096	1750.437
590.224	1750.888
590.352	1756.112
590.480	1744.575
590.608	1754.388
590.737	1743.763
590.865	1758.850
590.993	1740.537
591.121	1765.763
591.249	1753.025
591.377	1751.213
591.505	1763.437
591.633	1761.500
591.762	1771.463
591.890	1755.725
592.018	1767.112
592.146	1773.812
592.274	1789.775
592.402	1773.662
592.530	1769.737
592.658	1791.025
592.787	1789.013
592.915	1777.513
593.043	1789.138
593.171	1796.412
593.299	1810.662
593.427	1797.075
593.555	1810.838
593.683	1809.937
593.812	1814.838
593.940	1824.350
594.068	1832.075
594.196	1863.250
594.324	1817.200
594.452	1861.112
594.580	1865.937
594.708	1846.800
594.837	1847.862
594.965	1859.987
595.093	1878.425
595.221	1874.537
595.349	1895.675
595.477	1882.675
595.605	1878.062
595.733	1920.175
595.862	1913.963
595.990	1925.162
596.118	1915.050
596.246	1924.000
596.374	1950.925
596.502	1957.662
596.630	1956.600
596.758	1959.713
596.887	1968.900
597.015	1994.662
597.143	1953.825
597.271	1982.225
597.399	1990.662
597.527	1995.875
597.655	1984.575
597.783	2003.138
597.912	1970.200
598.040	2008.062
598.168	1997.875
598.296	1996.750
598.424	1988.937
598.552	2001.862
598.680	1985.963
598.808	1997.263
598.937	2013.500
599.065	2022.338
599.193	2008.775
599.321	1977.700
599.449	2023.013
599.577	2010.400
599.705	2003.162
599.833	2012.487
599.962	2005.388
600.090	2000.900
600.218	2010.700
600.346	2029.275
600.474	2026.912
600.602	2022.963
600.730	2035.487
600.858	2027.662
600.987	2045.638
601.115	2017.237
601.243	2036.588
601.371	2053.100
601.499	2055.262
601.627	2047.187
601.755	2073.488
601.883	2073.162
602.012	2097.775
602.140	2090.600
602.268	2092.600
602.396	2102.062
602.524	2110.162
602.652	2121.850
602.780	2111.600
602.908	2130.875
603.037	2153.187
603.165	2152.600
603.293	2166.412
603.421	2190.562
603.549	2177.512
603.677	2232.937
603.805	2185.912
603.933	2220.450
604.062	2216.312
604.190	2257.463
604.318	2230.200
604.446	2276.225
604.574	2280.050
604.702	2270.537
604.830	2284.088
604.958	2294.812
605.087	2324.075
605.215	2331.200
605.343	2347.750
605.471	2348.675
605.599	2359.687
605.727	2362.787
605.855	2388.312
605.983	2367.650
606.112	2392.787
606.240	2409.562
606.368	2433.412
606.496	2478.175
606.624	2427.525
606.752	2458.637
606.880	2500.662
607.008	2543.675
607.137	2535.250
607.265	2475.600
607.393	2506.275
607.521	2536.012
607.649	2476.713
607.777	2508.900
607.905	2518.412
608.033	2515.363
608.162	2492.262
608.290	2545.713
608.418	2520.900
608.546	2536.713
608.674	2556.988
608.802	2512.937
608.930	2545.200
609.058	2527.925
609.187	2566.613
609.315	2584.238
609.443	2552.775
609.571	2586.713
609.699	2553.287
609.827	2563.213
609.955	2599.075
610.083	2548.463
610.212	2568.812
610.340	2563.887
610.468	2623.475
610.596	2620.338
610.724	2617.838
610.852	2583.650
610.980	2594.887
611.108	2664.450
611.237	2601.162
611.365	2610.537
611.493	2596.238
611.621	2641.100
611.749	2628.088
611.877	2646.412
612.005	2638.975
612.133	2658.750
612.262	2651.650
612.390	2659.162
612.518	2713.925
612.646	2755.662
612.774	2681.600
612.902	2670.988
613.030	2705.225
613.158	2756.887
613.287	2735.850
613.415	2707.662
613.543	2712.037
613.671	2726.963
613.799	2782.012
613.927	2766.575
614.055	2761.150
614.183	2910.162
614.312	2779.925
614.440	2888.475
614.568	2797.387
614.696	2812.812
614.824	3002.825
614.952	2860.113
615.080	2831.312
615.208	2897.988
615.337	2884.338
615.465	2868.412
615.593	2893.950
615.721	2938.525
615.849	2948.588
615.977	2958.287
616.105	3014.012
616.233	2952.225
616.362	3050.488
616.490	2970.525
616.618	2978.050
616.746	3071.787
616.874	3085.925
617.002	3042.512
617.130	3098.863
617.258	3204.588
617.387	3107.425
617.515	3089.225
617.643	3092.425
617.771	3164.225
617.899	3168.950
618.027	3107.550
618.155	3256.650
618.283	3124.000
618.412	3182.400
618.540	3258.838
618.668	3228.662
618.796	3221.450
618.924	3324.762
619.052	3224.088
619.180	3205.863
619.308	3272.162
619.437	3272.325
619.565	3271.000
619.693	3254.262
619.821	3283.238
619.949	3276.838
620.077	3330.825
620.205	3350.475
620.333	3338.238
620.462	3375.050
620.590	3431.463
620.718	3360.787
620.846	3455.312
620.974	3453.750
621.102	3404.100
621.230	3360.387
621.358	3503.850
621.487	3384.037
621.615	3426.213
621.743	3448.875
621.871	3442.863
621.999	3525.463
622.127	3461.213
622.255	3468.687
622.383	3467.387
622.512	3481.475
622.640	3623.075
622.768	3433.800
622.896	3497.250
623.024	3474.400
623.152	3575.463
623.280	3560.137
623.408	3476.050
623.537	3532.725
623.665	3496.437
623.793	3576.012
623.921	3520.537
624.049	3505.537
624.177	3532.850
624.305	3624.937
624.433	3577.213
624.562	3594.225
624.690	3601.537
624.818	3646.312
624.946	3764.537
625.074	3658.912
625.202	3593.613
625.330	3598.613
625.458	3677.512
625.587	3632.500
625.715	3705.425
625.843	3770.000
625.971	3669.550
626.099	3670.912
626.227	3676.238
626.355	3652.125
626.483	3780.162
626.612	3688.975
626.740	3658.850
626.868	3746.037
626.996	3682.387
627.124	3690.450
627.252	3699.475
627.380	3755.800
627.508	3750.162
627.637	3716.750
627.765	3769.262
627.893	3778.550
628.021	3778.675
628.149	3803.437
628.277	3849.338
628.405	3900.200
628.533	3787.075
628.662	3872.012
628.790	3839.050
628.918	3850.437
629.046	3849.025
629.174	3872.713
629.302	3976.287
629.430	3877.662
629.558	3919.875
629.687	3916.050
629.815	3937.025
629.943	3981.650
630.071	3986.575
630.199	3965.050
630.327	3995.475
630.455	3982.488
630.583	4077.762
630.712	4044.550
630.840	4035.625
630.968	4116.887
631.096	4046.863
631.224	4065.400
631.352	4073.875
631.480	4120.875
631.608	4109.887
631.737	4202.988
631.865	4302.975
631.993	4143.462
632.121	4240.525
632.249	4236.825
632.377	4234.050
632.505	4251.837
632.633	4165.087
632.762	4234.413
632.890	4363.050
633.018	4219.337
633.146	4290.712
633.274	4289.837
633.402	4279.562
633.530	4265.663
633.658	4427.375
633.787	4259.125
633.915	4352.600
634.043	4309.600
634.171	4291.550
634.299	4341.425
634.427	4446.750
634.555	4360.312
634.683	4329.525
634.812	4319.300
634.940	4343.625
635.068	4296.887
635.196	4373.200
635.324	4348.825
635.452	4439.038
635.580	4336.163
635.708	4370.687
635.837	4427.800
635.965	4401.137
636.093	4382.637
636.221	4356.075
636.349	4439.988
636.477	4319.988
636.605	4524.087
636.733	4326.850
636.862	4340.450
636.990	4369.150
637.118	4433.850
637.246	4393.250
637.374	4360.925
637.502	4362.475
637.630	4316.988
637.758	4378.738
637.887	4332.500
638.015	4321.038
638.143	4307.575
638.271	4355.062
638.399	4342.075
638.527	4310.038
638.655	4301.913
638.783	4479.337
638.912	4357.613
639.040	4339.413
639.168	4384.225
639.296	4330.337
639.424	4449.038
639.552	4294.538
639.680	4338.175
639.808	4362.575
639.937	4290.913
640.065	4294.587
640.193	4424.387
640.321	4299.663
640.449	4368.837
640.577	4432.350
640.705	4349.137
640.833	4458.925
640.962	4298.325
641.090	4313.875
641.218	4291.625
641.346	4357.525
641.474	4379.262
641.602	4308.675
641.730	4316.062
641.858	4304.925
641.987	4339.450
642.115	4329.762
642.243	4386.062
642.371	4355.913
642.499	4334.700
642.627	4362.587
642.755	4423.450
642.883	4431.512
643.012	4383.363
643.140	4342.962
643.268	4360.450
643.396	4392.625
643.524	4512.913
643.652	4358.887
643.780	4375.375
643.908	4378.962
644.037	4512.913
644.165	4383.000
644.293	4391.025
644.421	4368.738
644.549	4444.225
644.677	4372.962
644.805	4444.087
644.933	4378.550
645.062	4381.025
645.190	4397.462
645.318	4480.512
645.446	4413.650
645.574	4434.275
645.702	4396.587
645.830	4578.437
645.958	4394.550
646.087	4573.425
646.215	4393.988
646.343	4579.200
646.471	4460.837
646.599	4460.925
646.727	4375.637
646.855	4414.387
646.983	4437.238
647.112	4364.462
647.240	4554.750
647.368	4402.475
647.496	4447.512
647.624	4384.775
647.752	4367.712
647.880	4375.837
648.008	4389.238
648.137	4363.538
648.265	4348.387
648.393	4355.613
648.521	4371.325
648.649	4396.675
648.777	4375.900
648.905	4324.550
649.033	4361.650
649.162	4364.825
649.290	4332.350
649.418	4378.825
649.546	4392.238
649.674	4395.062
649.802	4326.238
649.930	4449.113
650.058	4256.288
650.187	4309.937
650.315	4258.025
650.443	4324.413
650.571	4269.312
650.699	4232.425
650.827	4215.538
650.955	4263.150
651.083	4252.288
651.212	4289.387
651.340	4296.738
651.468	4232.550
651.596	4187.113
651.724	4171.850
651.852	4190.962
651.980	4160.212
652.108	4270.825
652.237	4176.312
652.365	4234.075
652.493	4133.038
652.621	4116.413
652.749	4199.988
652.877	4083.400
653.005	4128.550
653.133	4071.550
653.262	4117.538
653.390	4068.687
653.518	4182.437
653.646	4060.950
653.774	4220.050
653.902	4080.800
654.030	4008.088
654.158	4047.075
654.287	4012.463
654.415	4033.488
654.543	4008.250
654.671	4047.150
654.799	3993.463
654.927	3961.312
655.055	3953.062
655.183	3980.425
655.312	3942.287
655.440	3990.050
655.568	3918.850
655.696	3996.113
655.824	4011.062
655.952	3912.213
656.080	3842.437
656.208	4038.262
656.337	3889.700
656.465	3890.238
656.593	3903.875
656.721	3860.613
656.849	3902.512
656.977	3818.925
657.105	3821.950
657.233	3780.637
657.362	3787.950
657.490	3781.175
657.618	3775.100
657.746	3752.425
657.874	3728.187
658.002	3710.137
658.130	3741.912
658.258	3674.412
658.387	3724.200
658.515	3663.825
658.643	3724.687
658.771	3683.838
658.899	3698.700
659.027	3666.525
659.155	3658.150
659.283	3788.975
659.412	3651.537
659.540	3751.988
659.668	3616.687
659.796	3652.100
659.924	3678.050
660.052	3561.887
660.180	3618.650
660.308	3612.300
660.437	3563.963
660.565	3570.762
660.693	3564.975
660.821	3533.988
660.949	3528.775
661.077	3495.050
661.205	3526.175
661.333	3483.912
661.462	3589.562
661.590	3519.400
661.718	3670.488
661.846	3544.475
661.974	3623.450
662.102	3461.250
662.230	3480.950
662.358	3446.088
662.487	3445.137
662.615	3416.412
662.743	3375.662
662.871	3389.525
662.999	3383.537
663.127	3340.312
663.255	3482.062
663.383	3452.363
663.512	3349.700
663.640	3369.437
663.768	3319.113
663.896	3336.687
664.024	3358.525
664.152	3310.213
664.280	3328.975
664.408	3328.762
664.537	3362.400
664.665	3241.825
664.793	3226.325
664.921	3230.375
665.049	3246.137
665.177	3256.637
665.305	3253.475
665.433	3237.613
665.562	3194.200
665.690	3223.950
665.818	3403.512
665.946	3219.050
666.074	3215.550
666.202	3183.000
666.330	3227.387
666.458	3204.887
666.587	3126.525
666.715	3150.250
666.843	3128.725
666.971	3115.863
667.099	3133.175
667.227	3122.725
667.355	3137.312
667.483	3091.125
667.612	3105.900
667.740	3119.287
667.868	3154.713
667.996	3087.625
668.124	3035.463
668.252	3045.225
668.380	3029.963
668.508	3053.887
668.637	3041.475
668.765	2991.937
668.893	3061.925
669.021	2988.700
669.149	3043.625
669.277	3049.650
669.405	2959.500
669.533	2963.600
669.662	3222.000
669.790	2961.338
669.918	3033.312
670.046	2935.312
670.174	3027.088
670.302	3009.363
670.430	2934.275
670.558	2982.775
670.687	2902.200
670.815	3061.287
670.943	2838.750
671.071	2874.512
671.199	2915.988
671.327	2849.100
671.455	2854.525
671.583	2843.412
671.712	3002.887
671.840	2842.113
671.968	2788.537
672.096	2816.113
672.224	2788.662
672.352	2927.650
672.480	2787.787
672.608	2738.113
672.737	2733.725
672.865	2898.238
672.993	2724.575
673.121	2703.287
673.249	2717.375
673.377	2680.625
673.505	2683.750
673.633	2680.050
673.762	2664.863
673.890	2667.838
674.018	2816.100
674.146	2639.825
674.274	2646.225
674.402	2749.613
674.530	2627.713
674.658	2634.100
674.787	2574.488
674.915	2574.050
675.043	2616.312
675.171	2603.875
675.299	2564.075
675.427	2574.250
675.555	2535.787
675.683	2535.062
675.812	2537.350
675.940	2525.387
676.068	2533.775
676.196	2514.900
676.324	2519.463
676.452	2502.375
676.580	2478.887
676.708	2499.600
676.837	2504.250
676.965	2445.225
677.093	2467.725
677.221	2451.988
677.349	2436.762
677.477	2455.588
677.605	2412.412
677.733	2447.562
677.862	2393.512
677.990	2403.062
678.118	2395.250
678.246	2368.925
678.374	2331.662
678.502	2354.000
678.630	2343.787
678.758	2328.113
678.887	2324.113
679.015	2323.863
679.143	2306.675
679.271	2283.375
679.399	2297.113
679.527	2264.488
679.655	2259.225
679.783	2265.637
679.912	2276.275
680.040	2272.887
680.168	2243.412
680.296	2232.637
680.424	2239.113
680.552	2204.175
680.680	2242.325
680.808	2189.113
680.937	2190.375
681.065	2193.262
681.193	2170.812
681.321	2195.775
681.449	2180.025
681.577	2169.075
681.705	2145.800
681.833	2124.387
681.962	2131.325
682.090	2153.437
682.218	2115.600
682.346	2103.275
682.474	2116.213
682.602	2119.137
682.730	2099.400
682.858	2083.775
682.987	2098.525
683.115	2084.488
683.243	2061.375
683.371	2074.887
683.499	2034.062
683.627	2081.312
683.755	2040.075
683.883	2032.362
684.012	2021.300
684.140	2025.287
684.268	2014.687
684.396	2020.900
684.524	2010.250
684.652	2028.787
684.780	2015.787
684.908	1996.838
685.037	1995.213
685.165	1977.225
685.293	1980.537
685.421	1959.237
685.549	1963.225
685.677	1969.575
685.805	1951.838
685.933	1946.338
686.062	1934.287
686.190	1946.312
686.318	1955.325
686.446	1929.437
686.574	1916.838
686.702	1927.650
686.830	1927.400
686.958	1898.062
687.087	1895.175
687.215	1877.325
687.343	1872.463
687.471	1890.937
687.599	1852.550
687.727	1857.312
687.855	1874.912
687.983	1859.662
688.112	1853.350
688.240	1835.250
688.368	1831.975
688.496	1831.450
688.624	1830.300
688.752	1823.112
688.880	1828.862
689.008	1814.700
689.137	1805.525
689.265	1799.075
689.393	1779.675
689.521	1794.425
689.649	1786.925
689.777	1776.537
689.905	1777.125
690.033	1771.300
690.162	1746.950
690.290	1757.525
690.418	1745.975
690.546	1765.362
690.674	1761.350
690.802	1708.787
690.930	1724.187
691.058	1709.838
691.187	1703.912
691.315	1731.600
691.443	1701.937
691.571	1684.187
691.699	1675.750
691.827	1680.550
691.955	1676.650
692.083	1669.975
692.212	1650.987
692.340	1668.250
692.468	1663.362
692.596	1648.037
692.724	1628.263
692.852	1633.675
692.980	1643.250
693.108	1625.437
693.237	1614.925
693.365	1607.013
693.493	1590.037
693.621	1595.675
693.749	1583.713
693.877	1570.537
694.005	1552.812
694.133	1580.187
694.262	1557.287
694.390	1556.263
694.518	1529.213
694.646	1534.412
694.774	1525.838
694.902	1518.437
695.030	1548.763
695.158	1494.550
695.287	1512.662
695.415	1508.100
695.543	1500.425
695.671	1496.750
695.799	1469.675
695.927	1478.675
696.055	1454.425
696.183	1490.900
696.312	1468.713
696.440	1437.825
696.568	1445.787
696.696	1433.925
696.824	1422.112
696.952	1426.025
697.080	1416.825
697.208	1423.763
697.337	1400.950
697.465	1395.525
697.593	1397.075
697.721	1396.987
697.849	1392.487
697.977	1387.650
698.105	1399.737
698.233	1372.475
698.362	1359.100
698.490	1355.487
698.618	1353.600
698.746	1360.213
698.874	1355.338
699.002	1353.300
699.130	1329.625
699.258	1339.487
699.387	1317.075
699.515	1321.150
699.643	1318.463
699.771	1317.513
699.899	1316.312
700.027	1311.825
700.155	1294.100
700.283	1286.237
700.412	1274.263
700.540	1269.287
700.668	1269.737
700.796	1263.100
700.924	1257.075
701.052	1263.175
701.180	1250.050
701.308	1245.600
701.437	1237.300
701.565	1242.300
701.693	1229.287
701.821	1247.375
701.949	1239.425
702.077	1211.050
702.205	1226.000
702.333	1209.725
702.462	1210.187
702.590	1197.112
702.718	1198.763
702.846	1193.138
702.974	1195.625
703.102	1188.687
703.230	1183.162
703.358	1151.050
703.487	1160.450
703.615	1162.888
703.743	1143.138
703.871	1164.237
703.999	1141.175
704.127	1147.100
704.255	1128.662
704.383	1141.912
704.512	1120.338
704.640	1117.300
704.768	1116.487
704.896	1102.775
705.024	1101.050
705.152	1096.362
705.280	1103.475
705.408	1085.763
705.537	1090.487
705.665	1087.500
705.793	1083.463
705.921	1080.013
706.049	1082.612
706.177	1072.925
706.305	1058.725
706.433	1057.200
706.562	1052.300
706.690	1042.450
706.818	1033.700
706.946	1039.263
707.074	1038.450
707.202	1026.525
707.330	1023.163
707.458	1024.138
707.587	1017.763
707.715	1017.375
707.843	1001.687
707.971	1004.013
708.099	997.400
708.227	981.388
708.355	988.112
708.483	992.700
708.612	984.687
708.740	991.725
708.868	974.150
708.996	979.700
709.124	980.538
709.252	964.050
709.380	957.625
709.508	946.625
709.637	950.687
709.765	944.562
709.893	937.750
710.021	936.675
710.149	943.763
710.277	948.038
710.405	936.288
710.533	922.625
710.662	920.888
710.790	920.937
710.918	912.687
711.046	905.237
711.174	912.975
711.302	909.075
711.430	900.550
711.558	901.525
711.687	890.687
711.815	889.725
711.943	899.075
712.071	889.500
712.199	883.025
712.327	883.025
712.455	879.425
712.583	878.775
712.712	889.550
712.840	880.212
712.968	865.800
713.096	858.937
713.224	860.400
713.352	856.937
713.480	849.062
713.608	845.362
713.737	834.788
713.865	838.550
713.993	839.812
714.121	827.513
714.249	841.112
714.377	828.913
714.505	831.375
714.633	819.075
714.762	815.288
714.890	820.350
715.018	819.513
715.146	803.687
715.274	806.812
715.402	802.075
715.530	801.937
715.658	794.250
715.787	808.025
715.915	797.837
716.043	797.275
716.171	792.575
716.299	800.925
716.427	787.562
716.555	780.700
716.683	781.500
716.812	778.112
716.940	779.837
717.068	757.425
717.196	761.312
717.324	769.400
717.452	758.475
717.580	758.163
717.708	754.925
717.837	762.163
717.965	752.900
718.093	750.413
718.221	736.225
718.349	744.138
718.477	737.425
718.605	723.638
718.733	735.237
718.862	726.300
718.990	720.050
719.118	722.600
719.246	719.900
719.374	718.062
719.502	733.538
719.630	726.675
719.758	711.337
719.887	712.388
720.015	711.575
720.143	706.975
720.271	705.825
720.399	700.538
720.527	705.125
720.655	690.638
720.783	697.175
720.912	697.163
721.040	700.525
721.168	685.462
721.296	684.612
721.424	690.788
721.552	677.237
721.680	667.437
721.808	680.250
721.937	678.612
722.065	672.475
722.193	659.937
722.321	666.250
722.449	666.388
722.577	674.038
722.705	649.525
722.833	652.250
722.962	654.562
723.090	642.862
723.218	647.388
723.346	651.700
723.474	648.575
723.602	642.950
723.730	635.337
723.858	641.587
723.987	639.562
724.115	634.013
724.243	634.325
724.371	631.875
724.499	629.437
724.627	626.950
724.755	625.638
724.883	621.013
725.012	622.013
725.140	617.013
725.268	619.112
725.396	614.500
725.524	602.937
725.652	603.475
725.780	599.513
725.908	602.663
726.037	594.562
726.165	588.700
726.293	588.150
726.421	590.737
726.549	594.625
726.677	580.913
726.805	585.950
726.933	586.587
727.062	574.225
727.190	581.475
727.318	579.562
727.446	575.788
727.574	577.250
727.702	570.750
727.830	574.150
727.958	570.850
728.087	572.862
728.215	564.462
728.343	562.962
728.471	563.987
728.599	549.475
728.727	557.575
728.855	564.212
728.983	550.275
729.112	544.900
729.240	543.300
729.368	545.025
729.496	549.525
729.624	537.388
729.752	540.200
729.880	540.550
730.008	544.812
730.137	537.038
730.265	539.725
730.393	532.687
730.521	527.112
730.649	524.950
730.777	533.737
730.905	522.775
731.033	518.300
731.162	514.800
731.290	520.388
731.418	521.675
731.546	537.475
731.674	509.212
731.802	513.975
731.930	510.000
732.058	502.625
732.187	503.562
732.315	508.725
732.443	510.725
732.571	496.212
732.699	498.312
732.827	497.363
732.955	495.687
733.083	489.937
733.212	489.625
733.340	490.925
733.468	494.913
733.596	490.337
733.724	474.975
733.852	494.062
733.980	481.113
734.108	487.538
734.237	494.150
734.365	477.075
734.493	480.450
734.621	476.437
734.749	475.187
734.877	474.187
735.005	465.625
735.133	476.988
735.262	473.975
735.390	466.450
735.518	466.512
735.646	464.738
735.774	465.687
735.902	466.275
736.030	462.750
736.158	469.363
736.287	457.350
736.415	462.675
736.543	455.113
736.671	448.125
736.799	452.413
