sample4h_at_750.00nm_cut_at_1200.50Y_01.dat
19.06.2023
10:53:53
cut middle at Y: 1200.50
top cursor: 1249 down cursor: 1152 mean of: 97 lines , 2560 datapoints
wavelength(nm)	intensity[arb. units]
585.996	1182.206
586.124	1157.134
586.252	1154.670
586.380	1154.103
586.508	1145.866
586.637	1158.619
586.765	1158.103
586.893	1161.536
587.021	1170.701
587.149	1164.722
587.277	1164.361
587.405	1172.062
587.533	1150.361
587.662	1157.784
587.790	1159.412
587.918	1161.938
588.046	1167.887
588.174	1168.443
588.302	1175.278
588.430	1177.144
588.558	1174.536
588.687	1175.835
588.815	1180.247
588.943	1184.649
589.071	1187.680
589.199	1170.474
589.327	1181.155
589.455	1178.495
589.583	1195.392
589.712	1173.701
589.840	1187.113
589.968	1187.186
590.096	1185.103
590.224	1185.186
590.352	1199.464
590.480	1195.402
590.608	1196.361
590.737	1195.835
590.865	1192.670
590.993	1198.412
591.121	1206.093
591.249	1197.784
591.377	1207.918
591.505	1210.309
591.633	1203.361
591.762	1210.052
591.890	1200.856
592.018	1199.351
592.146	1207.598
592.274	1210.320
592.402	1198.887
592.530	1205.515
592.658	1208.938
592.787	1213.072
592.915	1210.588
593.043	1206.144
593.171	1208.526
593.299	1218.186
593.427	1224.969
593.555	1217.144
593.683	1215.649
593.812	1225.392
593.940	1237.608
594.068	1222.918
594.196	1213.021
594.324	1235.206
594.452	1224.577
594.580	1224.464
594.708	1229.608
594.837	1228.124
594.965	1240.557
595.093	1232.773
595.221	1234.856
595.349	1237.794
595.477	1250.825
595.605	1248.619
595.733	1256.474
595.862	1247.649
595.990	1247.247
596.118	1245.258
596.246	1257.515
596.374	1260.794
596.502	1258.753
596.630	1270.464
596.758	1264.299
596.887	1261.072
597.015	1268.247
597.143	1263.567
597.271	1264.134
597.399	1250.052
597.527	1255.629
597.655	1254.588
597.783	1251.969
597.912	1260.794
598.040	1251.660
598.168	1256.392
598.296	1254.227
598.424	1254.124
598.552	1258.330
598.680	1252.381
598.808	1254.052
598.937	1254.639
599.065	1245.082
599.193	1238.247
599.321	1251.433
599.449	1255.495
599.577	1255.742
599.705	1248.907
599.833	1260.062
599.962	1251.660
600.090	1244.928
600.218	1253.093
600.346	1253.495
600.474	1252.608
600.602	1252.608
600.730	1261.031
600.858	1259.639
600.987	1260.330
601.115	1253.227
601.243	1256.784
601.371	1262.990
601.499	1258.144
601.627	1272.082
601.755	1266.474
601.883	1280.103
602.012	1270.825
602.140	1273.515
602.268	1286.309
602.396	1275.773
602.524	1281.165
602.652	1285.062
602.780	1310.464
602.908	1287.732
603.037	1303.505
603.165	1294.052
603.293	1293.454
603.421	1299.227
603.549	1306.227
603.677	1312.124
603.805	1307.072
603.933	1315.093
604.062	1307.887
604.190	1325.124
604.318	1330.546
604.446	1325.722
604.574	1326.320
604.702	1327.423
604.830	1334.856
604.958	1336.402
605.087	1341.093
605.215	1345.515
605.343	1349.732
605.471	1336.742
605.599	1341.485
605.727	1353.021
605.855	1348.505
605.983	1341.588
606.112	1363.825
606.240	1353.041
606.368	1348.412
606.496	1348.454
606.624	1367.175
606.752	1355.691
606.880	1345.536
607.008	1360.155
607.137	1364.701
607.265	1359.557
607.393	1354.835
607.521	1347.526
607.649	1374.196
607.777	1346.041
607.905	1365.856
608.033	1351.082
608.162	1348.320
608.290	1356.320
608.418	1355.299
608.546	1345.093
608.674	1358.711
608.802	1372.856
608.930	1359.515
609.058	1345.464
609.187	1349.186
609.315	1336.876
609.443	1349.845
609.571	1360.320
609.699	1346.093
609.827	1356.557
609.955	1361.701
610.083	1339.928
610.212	1354.196
610.340	1345.711
610.468	1367.443
610.596	1357.526
610.724	1332.371
610.852	1353.907
610.980	1348.938
611.108	1354.979
611.237	1364.887
611.365	1341.959
611.493	1340.990
611.621	1328.031
611.749	1349.340
611.877	1358.052
612.005	1357.577
612.133	1346.680
612.262	1360.938
612.390	1353.392
612.518	1348.227
612.646	1348.093
612.774	1356.474
612.902	1353.124
613.030	1367.144
613.158	1371.340
613.287	1376.918
613.415	1366.165
613.543	1364.732
613.671	1368.670
613.799	1372.691
613.927	1373.979
614.055	1380.010
614.183	1370.526
614.312	1367.299
614.440	1374.093
614.568	1374.247
614.696	1395.371
614.824	1382.144
614.952	1385.289
615.080	1379.784
615.208	1381.526
615.337	1397.660
615.465	1377.258
615.593	1382.196
615.721	1384.701
615.849	1372.526
615.977	1391.289
616.105	1385.515
616.233	1399.526
616.362	1398.113
616.490	1394.062
616.618	1405.082
616.746	1404.433
616.874	1392.691
617.002	1403.021
617.130	1396.598
617.258	1390.701
617.387	1380.680
617.515	1404.814
617.643	1397.608
617.771	1397.619
617.899	1411.948
618.027	1390.763
618.155	1398.216
618.283	1388.381
618.412	1395.082
618.540	1406.763
618.668	1405.186
618.796	1395.093
618.924	1392.959
619.052	1403.753
619.180	1402.361
619.308	1410.619
619.437	1421.495
619.565	1402.144
619.693	1404.299
619.821	1406.588
619.949	1416.639
620.077	1400.546
620.205	1406.206
620.333	1404.227
620.462	1406.979
620.590	1409.113
620.718	1427.072
620.846	1399.340
620.974	1398.402
621.102	1408.763
621.230	1416.433
621.358	1395.454
621.487	1410.247
621.615	1409.948
621.743	1410.124
621.871	1410.320
621.999	1402.722
622.127	1397.732
622.255	1403.093
622.383	1403.814
622.512	1398.825
622.640	1405.072
622.768	1416.567
622.896	1393.608
623.024	1403.505
623.152	1393.062
623.280	1411.196
623.408	1401.175
623.537	1403.031
623.665	1404.536
623.793	1393.753
623.921	1400.979
624.049	1407.619
624.177	1399.464
624.305	1401.340
624.433	1396.433
624.562	1393.361
624.690	1398.990
624.818	1394.237
624.946	1404.196
625.074	1386.845
625.202	1393.144
625.330	1399.320
625.458	1412.021
625.587	1392.206
625.715	1402.753
625.843	1401.423
625.971	1391.680
626.099	1392.021
626.227	1394.495
626.355	1393.278
626.483	1394.485
626.612	1392.082
626.740	1393.670
626.868	1395.031
626.996	1386.041
627.124	1372.763
627.252	1399.794
627.380	1394.103
627.508	1387.196
627.637	1383.691
627.765	1381.557
627.893	1408.206
628.021	1398.072
628.149	1400.691
628.277	1399.320
628.405	1412.103
628.533	1383.113
628.662	1394.216
628.790	1394.588
628.918	1390.031
629.046	1385.876
629.174	1389.299
629.302	1405.299
629.430	1389.598
629.558	1393.794
629.687	1401.557
629.815	1398.897
629.943	1407.216
630.071	1406.907
630.199	1400.412
630.327	1402.938
630.455	1397.443
630.583	1401.732
630.712	1414.010
630.840	1403.629
630.968	1403.660
631.096	1411.412
631.224	1416.258
631.352	1398.268
631.480	1406.505
631.608	1401.268
631.737	1402.990
631.865	1404.979
631.993	1406.134
632.121	1411.196
632.249	1408.216
632.377	1412.660
632.505	1415.866
632.633	1406.392
632.762	1417.660
632.890	1409.619
633.018	1409.845
633.146	1400.794
633.274	1417.299
633.402	1399.278
633.530	1409.072
633.658	1419.216
633.787	1411.361
633.915	1413.629
634.043	1395.423
634.171	1404.907
634.299	1401.443
634.427	1401.464
634.555	1412.567
634.683	1407.753
634.812	1408.928
634.940	1403.959
635.068	1393.134
635.196	1398.072
635.324	1404.701
635.452	1386.082
635.580	1400.381
635.708	1387.691
635.837	1394.392
635.965	1379.423
636.093	1374.237
636.221	1373.619
636.349	1386.546
636.477	1372.660
636.605	1368.866
636.733	1363.454
636.862	1375.206
636.990	1367.557
637.118	1378.866
637.246	1363.577
637.374	1369.402
637.502	1364.649
637.630	1353.804
637.758	1349.361
637.887	1358.113
638.015	1355.412
638.143	1363.361
638.271	1345.866
638.399	1351.371
638.527	1353.103
638.655	1362.124
638.783	1345.072
638.912	1360.000
639.040	1352.361
639.168	1339.722
639.296	1342.124
639.424	1338.794
639.552	1333.062
639.680	1342.454
639.808	1343.979
639.937	1329.680
640.065	1338.526
640.193	1337.155
640.321	1336.691
640.449	1334.577
640.577	1336.340
640.705	1337.299
640.833	1332.670
640.962	1328.021
641.090	1330.186
641.218	1329.990
641.346	1318.526
641.474	1321.928
641.602	1325.330
641.730	1328.113
641.858	1321.381
641.987	1336.371
642.115	1327.979
642.243	1330.412
642.371	1346.289
642.499	1325.979
642.627	1337.928
642.755	1322.351
642.883	1321.990
643.012	1323.701
643.140	1340.021
643.268	1329.722
643.396	1329.010
643.524	1322.907
643.652	1322.711
643.780	1313.959
643.908	1314.825
644.037	1324.629
644.165	1319.629
644.293	1326.010
644.421	1319.753
644.549	1324.670
644.677	1329.959
644.805	1325.969
644.933	1310.948
645.062	1319.062
645.190	1318.268
645.318	1312.134
645.446	1317.371
645.574	1324.371
645.702	1308.392
645.830	1325.557
645.958	1326.660
646.087	1313.052
646.215	1326.041
646.343	1304.175
646.471	1318.474
646.599	1297.268
646.727	1297.753
646.855	1301.392
646.983	1306.423
647.112	1300.175
647.240	1303.361
647.368	1304.866
647.496	1282.588
647.624	1287.381
647.752	1290.371
647.880	1292.206
648.008	1294.392
648.137	1297.619
648.265	1279.423
648.393	1298.598
648.521	1277.567
648.649	1289.371
648.777	1276.000
648.905	1270.082
649.033	1287.124
649.162	1271.577
649.290	1263.103
649.418	1265.485
649.546	1277.577
649.674	1265.876
649.802	1274.814
649.930	1262.691
650.058	1258.485
650.187	1257.443
650.315	1265.505
650.443	1258.629
650.571	1252.433
650.699	1241.299
650.827	1254.588
650.955	1252.876
651.083	1250.041
651.212	1253.093
651.340	1249.763
651.468	1239.608
651.596	1243.948
651.724	1243.299
651.852	1235.670
651.980	1238.598
652.108	1242.608
652.237	1236.680
652.365	1215.557
652.493	1217.155
652.621	1216.330
652.749	1216.485
652.877	1222.443
653.005	1226.371
653.133	1214.567
653.262	1211.412
653.390	1208.474
653.518	1208.711
653.646	1206.732
653.774	1213.969
653.902	1210.938
654.030	1209.990
654.158	1194.660
654.287	1203.289
654.415	1188.433
654.543	1204.082
654.671	1193.175
654.799	1189.588
654.927	1183.412
655.055	1186.474
655.183	1184.711
655.312	1185.227
655.440	1180.969
655.568	1175.608
655.696	1188.330
655.824	1190.351
655.952	1174.856
656.080	1169.567
656.208	1173.247
656.337	1170.041
656.465	1167.144
656.593	1167.742
656.721	1164.216
656.849	1152.155
656.977	1164.216
657.105	1163.804
657.233	1154.320
657.362	1152.680
657.490	1152.887
657.618	1157.598
657.746	1159.258
657.874	1151.299
658.002	1148.722
658.130	1158.320
658.258	1138.588
658.387	1137.206
658.515	1140.598
658.643	1129.990
658.771	1162.907
658.899	1142.443
659.027	1135.402
659.155	1132.268
659.283	1126.567
659.412	1128.670
659.540	1135.351
659.668	1136.258
659.796	1133.577
659.924	1144.227
660.052	1138.309
660.180	1124.021
660.308	1121.124
660.437	1124.711
660.565	1118.711
660.693	1122.835
660.821	1120.021
660.949	1129.289
661.077	1113.536
661.205	1110.753
661.333	1108.959
661.462	1110.804
661.590	1100.175
661.718	1113.124
661.846	1117.536
661.974	1110.557
662.102	1101.711
662.230	1103.227
662.358	1105.134
662.487	1104.990
662.615	1096.093
662.743	1102.237
662.871	1091.691
662.999	1099.485
663.127	1107.804
663.255	1096.907
663.383	1098.165
663.512	1103.320
663.640	1094.598
663.768	1094.887
663.896	1101.742
664.024	1087.454
664.152	1092.227
664.280	1090.649
664.408	1076.742
664.537	1079.515
664.665	1096.062
664.793	1077.773
664.921	1085.753
665.049	1084.928
665.177	1078.835
665.305	1078.577
665.433	1081.670
665.562	1086.649
665.690	1079.103
665.818	1072.412
665.946	1083.134
666.074	1083.031
666.202	1082.742
666.330	1070.134
666.458	1097.454
666.587	1077.010
666.715	1067.711
666.843	1066.567
666.971	1072.680
667.099	1062.876
667.227	1066.629
667.355	1071.144
667.483	1073.938
667.612	1066.907
667.740	1062.546
667.868	1063.000
667.996	1059.660
668.124	1066.753
668.252	1054.701
668.380	1055.124
668.508	1062.155
668.637	1046.381
668.765	1053.392
668.893	1047.649
669.021	1046.814
669.149	1044.588
669.277	1047.330
669.405	1042.639
669.533	1045.979
669.662	1042.082
669.790	1043.794
669.918	1039.546
670.046	1033.856
670.174	1031.515
670.302	1028.722
670.430	1036.454
670.558	1027.474
670.687	1027.155
670.815	1020.845
670.943	1031.670
671.071	1015.175
671.199	1017.825
671.327	1018.835
671.455	1011.948
671.583	1013.515
671.712	1009.485
671.840	1012.691
671.968	1001.608
672.096	993.474
672.224	998.196
672.352	995.918
672.480	990.278
672.608	996.680
672.737	995.289
672.865	1003.186
672.993	990.856
673.121	984.082
673.249	984.742
673.377	987.464
673.505	977.258
673.633	981.340
673.762	965.392
673.890	976.000
674.018	973.928
674.146	966.392
674.274	967.361
674.402	960.309
674.530	964.175
674.658	967.124
674.787	967.155
674.915	963.247
675.043	964.773
675.171	955.082
675.299	946.536
675.427	952.320
675.555	952.969
675.683	939.103
675.812	934.866
675.940	947.536
676.068	936.804
676.196	940.124
676.324	938.093
676.452	940.619
676.580	929.742
676.708	928.959
676.837	929.608
676.965	932.402
677.093	929.969
677.221	919.722
677.349	917.041
677.477	922.711
677.605	923.887
677.733	907.887
677.862	914.021
677.990	910.845
678.118	911.784
678.246	903.794
678.374	907.773
678.502	903.732
678.630	900.546
678.758	902.742
678.887	897.969
679.015	903.052
679.143	896.804
679.271	900.804
679.399	895.515
679.527	888.856
679.655	888.175
679.783	885.237
679.912	878.031
680.040	883.175
680.168	881.010
680.296	879.268
680.424	889.639
680.552	871.536
680.680	881.268
680.808	876.010
680.937	873.144
681.065	873.732
681.193	862.082
681.321	870.536
681.449	863.959
681.577	870.392
681.705	858.763
681.833	862.660
681.962	856.948
682.090	867.103
682.218	863.278
682.346	856.887
682.474	851.093
682.602	849.175
682.730	845.113
682.858	844.845
682.987	848.485
683.115	849.464
683.243	852.010
683.371	842.536
683.499	841.588
683.627	844.969
683.755	839.866
683.883	838.144
684.012	835.722
684.140	838.804
684.268	825.835
684.396	833.402
684.524	827.268
684.652	830.392
684.780	834.402
684.908	840.093
685.037	823.536
685.165	829.423
685.293	831.918
685.421	827.567
685.549	824.175
685.677	829.835
685.805	821.155
685.933	825.227
686.062	825.381
686.190	819.773
686.318	821.134
686.446	810.619
686.574	824.041
686.702	811.021
686.830	820.041
686.958	817.990
687.087	823.433
687.215	812.990
687.343	805.361
687.471	808.454
687.599	808.206
687.727	813.124
687.855	796.268
687.983	794.186
688.112	798.041
688.240	798.835
688.368	803.072
688.496	805.948
688.624	799.196
688.752	803.361
688.880	792.392
689.008	788.660
689.137	791.876
689.265	785.979
689.393	791.680
689.521	783.515
689.649	797.474
689.777	780.691
689.905	785.227
690.033	777.732
690.162	778.258
690.290	772.000
690.418	781.598
690.546	780.845
690.674	778.299
690.802	762.938
690.930	762.938
691.058	764.289
691.187	763.948
691.315	765.979
691.443	770.021
691.571	769.948
691.699	759.845
691.827	769.990
691.955	756.876
692.083	756.691
692.212	750.041
692.340	755.485
692.468	752.237
692.596	749.918
692.724	747.577
692.852	737.938
692.980	745.340
693.108	745.206
693.237	742.361
693.365	731.876
693.493	738.814
693.621	725.711
693.749	727.443
693.877	737.474
694.005	725.165
694.133	728.144
694.262	723.856
694.390	715.175
694.518	715.856
694.646	706.948
694.774	712.093
694.902	709.124
695.030	703.979
695.158	713.639
695.287	702.979
695.415	710.711
695.543	692.825
695.671	688.732
695.799	695.588
695.927	692.928
696.055	693.206
696.183	687.722
696.312	694.320
696.440	689.680
696.568	681.959
696.696	683.753
696.824	685.268
696.952	675.186
697.080	686.722
697.208	675.041
697.337	676.794
697.465	671.835
697.593	673.021
697.721	670.546
697.849	672.227
697.977	664.392
698.105	667.278
698.233	668.052
698.362	656.443
698.490	671.907
698.618	661.814
698.746	653.536
698.874	655.320
699.002	647.041
699.130	651.464
699.258	653.041
699.387	647.845
699.515	640.691
699.643	643.691
699.771	643.928
699.899	640.093
700.027	641.227
700.155	641.856
700.283	635.969
700.412	628.227
700.540	630.258
700.668	636.309
700.796	630.021
700.924	630.670
701.052	619.010
701.180	626.784
701.308	612.887
701.437	615.990
701.565	616.722
701.693	606.897
701.821	614.227
701.949	613.278
702.077	607.093
702.205	607.897
702.333	609.897
702.462	595.041
702.590	594.062
702.718	595.928
702.846	595.959
702.974	593.340
703.102	596.990
703.230	587.000
703.358	585.670
703.487	589.918
703.615	586.144
703.743	582.619
703.871	578.474
703.999	579.557
704.127	571.845
704.255	574.052
704.383	568.351
704.512	572.670
704.640	563.505
704.768	558.237
704.896	561.990
705.024	558.948
705.152	556.258
705.280	562.948
705.408	555.588
705.537	553.918
705.665	550.196
705.793	553.237
705.921	547.866
706.049	540.412
706.177	534.186
706.305	543.598
706.433	547.485
706.562	537.309
706.690	538.423
706.818	538.289
706.946	532.753
707.074	529.330
707.202	528.289
707.330	523.103
707.458	529.588
707.587	528.165
707.715	524.742
707.843	525.753
707.971	517.423
708.099	515.639
708.227	517.814
708.355	514.825
708.483	516.753
708.612	516.381
708.740	510.887
708.868	512.526
708.996	512.052
709.124	512.918
709.252	511.577
709.380	511.402
709.508	500.165
709.637	504.990
709.765	496.794
709.893	501.330
710.021	501.000
710.149	498.722
710.277	492.371
710.405	493.361
710.533	490.629
710.662	489.732
710.790	488.691
710.918	485.216
711.046	491.093
711.174	481.763
711.302	491.753
711.430	482.464
711.558	488.639
711.687	477.649
711.815	476.649
711.943	485.392
712.071	486.773
712.199	482.052
712.327	474.495
712.455	472.351
712.583	472.124
712.712	476.876
712.840	471.237
712.968	466.835
713.096	472.381
713.224	466.454
713.352	467.247
713.480	469.526
713.608	469.691
713.737	467.814
713.865	463.062
713.993	468.062
714.121	462.897
714.249	467.134
714.377	462.278
714.505	451.557
714.633	458.000
714.762	458.629
714.890	458.010
715.018	456.258
715.146	451.959
715.274	453.093
715.402	445.505
715.530	448.144
715.658	445.536
715.787	443.959
715.915	440.948
716.043	438.660
716.171	446.124
716.299	442.103
716.427	436.536
716.555	439.887
716.683	441.670
716.812	441.227
716.940	437.186
717.068	436.196
717.196	434.990
717.324	439.134
717.452	433.072
717.580	435.155
717.708	427.825
717.837	427.804
717.965	429.670
718.093	429.412
718.221	423.814
718.349	433.103
718.477	424.227
718.605	425.320
718.733	421.959
718.862	418.845
718.990	417.268
719.118	422.969
719.246	412.124
719.374	416.598
719.502	417.134
719.630	415.505
719.758	409.186
719.887	408.959
720.015	407.526
720.143	406.773
720.271	405.825
720.399	404.464
720.527	400.536
720.655	393.670
720.783	392.577
720.912	394.443
721.040	395.887
721.168	399.330
721.296	390.206
721.424	391.381
721.552	390.845
721.680	388.227
721.808	391.351
721.937	386.907
722.065	383.454
722.193	384.773
722.321	386.227
722.449	384.124
722.577	386.000
722.705	375.619
722.833	379.856
722.962	381.186
723.090	377.247
723.218	376.433
723.346	368.330
723.474	376.526
723.602	366.103
723.730	368.928
723.858	371.474
723.987	370.165
724.115	368.649
724.243	369.876
724.371	363.361
724.499	368.526
724.627	362.103
724.755	363.938
724.883	360.474
725.012	362.082
725.140	362.165
725.268	357.144
725.396	351.103
725.524	355.412
725.652	354.577
725.780	350.814
725.908	348.381
726.037	350.186
726.165	349.577
726.293	349.216
726.421	347.835
726.549	344.918
726.677	348.155
726.805	341.258
726.933	343.804
727.062	343.557
727.190	340.959
727.318	338.897
727.446	338.165
727.574	335.072
727.702	334.784
727.830	340.680
727.958	336.227
728.087	339.072
728.215	332.959
728.343	329.402
728.471	331.670
728.599	332.948
728.727	326.979
728.855	330.340
728.983	323.412
729.112	325.928
729.240	323.588
729.368	318.155
729.496	324.041
729.624	321.804
729.752	320.268
729.880	322.062
730.008	318.289
730.137	316.031
730.265	323.216
730.393	317.247
730.521	313.959
730.649	313.381
730.777	316.495
730.905	314.041
731.033	312.969
731.162	310.629
731.290	312.918
731.418	305.979
731.546	296.557
731.674	307.134
731.802	304.443
731.930	306.536
732.058	302.227
732.187	302.031
732.315	304.938
732.443	302.485
732.571	307.113
732.699	292.206
732.827	295.701
732.955	298.258
733.083	294.062
733.212	295.340
733.340	304.866
733.468	297.289
733.596	295.959
733.724	296.361
733.852	295.649
733.980	291.866
734.108	293.598
734.237	296.485
734.365	291.237
734.493	291.216
734.621	287.814
734.749	289.371
734.877	287.567
735.005	285.536
735.133	287.526
735.262	287.206
735.390	281.155
735.518	289.763
735.646	283.938
735.774	287.165
735.902	280.495
736.030	288.897
736.158	284.711
736.287	280.247
736.415	286.021
736.543	280.505
736.671	277.536
736.799	282.330
736.927	277.526
737.055	277.773
737.183	273.938
737.312	277.763
737.440	274.505
737.568	277.577
737.696	278.845
737.824	272.835
737.952	305.732
738.080	269.247
738.208	271.031
738.337	271.536
738.465	268.351
738.593	268.454
738.721	266.175
738.849	265.753
738.977	268.237
