Dunkelspektrum_at_750.00nm_cut_at_1350.00Y_01.dat
15.05.2023
11:27:24
cut middle at Y: 1350.00
top cursor: 1408 down cursor: 1292 mean of: 116 lines , 2560 datapoints
wavelength(nm)	intensity[arb. units]
585.996	128.802
586.124	118.302
586.252	113.578
586.380	114.828
586.508	116.448
586.637	118.026
586.765	114.164
586.893	117.284
587.021	113.776
587.149	122.638
587.277	114.862
587.405	114.345
587.533	116.172
587.662	114.759
587.790	110.922
587.918	112.509
588.046	116.362
588.174	116.129
588.302	113.793
588.430	114.043
588.558	116.422
588.687	111.862
588.815	116.233
588.943	114.741
589.071	113.466
589.199	118.466
589.327	113.750
589.455	113.793
589.583	111.448
589.712	113.362
589.840	115.353
589.968	120.422
590.096	118.405
590.224	115.216
590.352	113.828
590.480	113.586
590.608	112.216
590.737	111.759
590.865	112.440
590.993	113.371
591.121	113.069
591.249	109.733
591.377	113.302
591.505	113.784
591.633	110.836
591.762	113.129
591.890	113.914
592.018	111.698
592.146	112.095
592.274	117.509
592.402	116.638
592.530	113.638
592.658	112.845
592.787	112.371
592.915	114.931
593.043	113.828
593.171	112.621
593.299	116.474
593.427	113.534
593.555	108.353
593.683	108.017
593.812	109.638
593.940	110.966
594.068	112.069
594.196	110.155
594.324	108.595
594.452	110.466
594.580	110.983
594.708	110.422
594.837	109.491
594.965	112.655
595.093	109.828
595.221	111.603
595.349	109.345
595.477	109.207
595.605	114.966
595.733	111.819
595.862	110.017
595.990	111.009
596.118	114.164
596.246	111.664
596.374	110.250
596.502	110.069
596.630	113.750
596.758	109.836
596.887	109.250
597.015	110.621
597.143	110.586
597.271	108.638
597.399	111.664
597.527	112.647
597.655	112.879
597.783	111.733
597.912	111.052
598.040	108.319
598.168	111.767
598.296	111.578
598.424	109.629
598.552	111.750
598.680	112.759
598.808	109.491
598.937	107.509
599.065	108.474
599.193	112.276
599.321	108.379
599.449	106.534
599.577	108.578
599.705	111.707
599.833	112.793
599.962	109.095
600.090	109.793
600.218	114.216
600.346	111.491
600.474	109.207
600.602	107.931
600.730	110.862
600.858	118.802
600.987	112.293
601.115	106.147
601.243	107.250
601.371	114.879
601.499	113.069
601.627	110.224
601.755	117.362
601.883	109.043
602.012	112.724
602.140	107.224
602.268	108.922
602.396	110.948
602.524	129.698
602.652	134.784
602.780	132.112
602.908	112.724
603.037	112.853
603.165	108.302
603.293	107.336
603.421	107.612
603.549	108.414
603.677	107.121
603.805	106.931
603.933	107.052
604.062	110.750
604.190	109.259
604.318	108.543
604.446	106.733
604.574	108.655
604.702	107.819
604.830	107.371
604.958	108.526
605.087	108.138
605.215	107.319
605.343	106.422
605.471	108.336
605.599	110.552
605.727	108.543
605.855	107.638
605.983	107.853
606.112	110.888
606.240	108.957
606.368	113.491
606.496	108.931
606.624	113.905
606.752	109.750
606.880	110.940
607.008	107.466
607.137	108.017
607.265	106.284
607.393	110.207
607.521	108.767
607.649	106.371
607.777	108.060
607.905	111.224
608.033	107.078
608.162	106.060
608.290	106.431
608.418	114.853
608.546	110.991
608.674	108.293
608.802	110.181
608.930	110.638
609.058	107.017
609.187	105.552
609.315	105.983
609.443	108.431
609.571	109.052
609.699	107.578
609.827	107.828
609.955	107.793
610.083	107.922
610.212	108.103
610.340	110.138
610.468	107.750
610.596	108.871
610.724	112.155
610.852	108.759
610.980	111.267
611.108	109.491
611.237	111.026
611.365	107.741
611.493	104.871
611.621	106.388
611.749	106.716
611.877	109.681
612.005	109.603
612.133	108.052
612.262	108.474
612.390	111.353
612.518	110.612
612.646	107.172
612.774	107.129
612.902	105.784
613.030	106.741
613.158	107.526
613.287	107.793
613.415	108.448
613.543	110.560
613.671	109.388
613.799	108.371
613.927	108.181
614.055	112.172
614.183	112.181
614.312	107.431
614.440	107.603
614.568	107.345
614.696	107.750
614.824	107.052
614.952	106.672
615.080	106.121
615.208	105.767
615.337	109.017
615.465	109.052
615.593	110.948
615.721	108.543
615.849	106.966
615.977	106.552
616.105	107.276
616.233	106.250
616.362	109.233
616.490	109.241
616.618	109.241
616.746	107.543
616.874	107.302
617.002	109.836
617.130	110.017
617.258	105.871
617.387	106.629
617.515	107.647
617.643	106.741
617.771	106.405
617.899	106.500
618.027	107.776
618.155	107.638
618.283	111.129
618.412	107.767
618.540	106.078
618.668	108.586
618.796	107.724
618.924	109.862
619.052	107.578
619.180	106.810
619.308	108.371
619.437	108.517
619.565	109.103
619.693	110.784
619.821	107.931
619.949	109.207
620.077	106.569
620.205	108.241
620.333	108.845
620.462	113.319
620.590	109.190
620.718	111.052
620.846	107.931
620.974	108.914
621.102	114.000
621.230	108.310
621.358	107.397
621.487	108.724
621.615	112.121
621.743	108.914
621.871	107.017
621.999	107.293
622.127	106.948
622.255	106.810
622.383	105.078
622.512	106.810
622.640	109.603
622.768	107.552
622.896	107.647
623.024	106.466
623.152	105.716
623.280	108.474
623.408	107.603
623.537	109.009
623.665	110.517
623.793	109.216
623.921	108.621
624.049	113.828
624.177	108.888
624.305	106.095
624.433	107.853
624.562	106.802
624.690	106.802
624.818	107.138
624.946	109.698
625.074	109.250
625.202	109.181
625.330	108.940
625.458	107.060
625.587	105.612
625.715	108.991
625.843	106.819
625.971	108.241
626.099	109.233
626.227	108.612
626.355	106.862
626.483	110.319
626.612	107.741
626.740	103.828
626.868	107.060
626.996	108.905
627.124	106.741
627.252	108.121
627.380	107.914
627.508	105.353
627.637	107.121
627.765	106.845
627.893	111.164
628.021	107.707
628.149	109.034
628.277	110.017
628.405	107.836
628.533	106.681
628.662	105.845
628.790	106.250
628.918	108.121
629.046	111.138
629.174	111.655
629.302	108.276
629.430	106.328
629.558	108.612
629.687	113.112
629.815	107.345
629.943	107.414
630.071	107.862
630.199	110.733
630.327	107.655
630.455	107.181
630.583	105.440
630.712	106.483
630.840	109.224
630.968	106.922
631.096	103.897
631.224	106.586
631.352	108.603
631.480	108.095
631.608	106.500
631.737	105.388
631.865	105.940
631.993	107.267
632.121	108.086
632.249	109.828
632.377	106.836
632.505	108.448
632.633	108.388
632.762	105.552
632.890	105.483
633.018	107.647
633.146	105.440
633.274	107.845
633.402	107.517
633.530	107.707
633.658	108.888
633.787	107.664
633.915	105.069
634.043	105.569
634.171	110.724
634.299	105.621
634.427	106.310
634.555	106.250
634.683	106.871
634.812	107.776
634.940	107.793
635.068	106.767
635.196	106.629
635.324	107.328
635.452	108.474
635.580	108.026
635.708	107.517
635.837	107.784
635.965	105.948
636.093	106.569
636.221	105.517
636.349	106.509
636.477	106.733
636.605	106.897
636.733	107.086
636.862	108.009
636.990	105.543
637.118	107.707
637.246	107.371
637.374	105.664
637.502	107.698
637.630	106.500
637.758	106.569
637.887	106.397
638.015	110.302
638.143	108.397
638.271	108.000
638.399	107.724
638.527	108.190
638.655	107.052
638.783	104.526
638.912	106.009
639.040	105.302
639.168	104.569
639.296	105.267
639.424	107.198
639.552	106.750
639.680	104.974
639.808	105.586
639.937	107.095
640.065	104.379
640.193	108.250
640.321	106.957
640.449	104.784
640.577	106.862
640.705	107.000
640.833	106.733
640.962	106.638
641.090	106.250
641.218	107.129
641.346	106.414
641.474	107.690
641.602	105.784
641.730	107.733
641.858	105.483
641.987	106.578
642.115	106.862
642.243	106.397
642.371	104.914
642.499	105.526
642.627	106.276
642.755	106.543
642.883	105.897
643.012	108.172
643.140	106.336
643.268	107.052
643.396	106.603
643.524	104.638
643.652	103.612
643.780	105.112
643.908	104.716
644.037	105.491
644.165	105.172
644.293	106.207
644.421	107.207
644.549	108.940
644.677	109.362
644.805	106.500
644.933	106.448
645.062	106.759
645.190	106.112
645.318	107.629
645.446	105.500
645.574	106.526
645.702	105.319
645.830	110.509
645.958	107.491
646.087	107.759
646.215	108.043
646.343	106.957
646.471	106.009
646.599	104.966
646.727	105.233
646.855	104.448
646.983	103.586
647.112	105.776
647.240	106.534
647.368	105.009
647.496	107.483
647.624	108.345
647.752	106.612
647.880	106.009
648.008	104.802
648.137	106.483
648.265	105.983
648.393	105.569
648.521	106.629
648.649	104.716
648.777	107.138
648.905	106.302
649.033	107.181
649.162	106.164
649.290	104.983
649.418	107.483
649.546	109.819
649.674	105.164
649.802	107.310
649.930	108.371
650.058	107.328
650.187	105.017
650.315	113.207
650.443	109.466
650.571	105.233
650.699	106.612
650.827	104.172
650.955	106.190
651.083	105.879
651.212	106.259
651.340	104.940
651.468	104.991
651.596	105.422
651.724	106.302
651.852	105.362
651.980	105.319
652.108	105.690
652.237	107.724
652.365	109.233
652.493	106.698
652.621	109.310
652.749	108.828
652.877	109.405
653.005	106.767
653.133	105.776
653.262	104.836
653.390	105.871
653.518	105.793
653.646	104.836
653.774	104.991
653.902	105.466
654.030	109.448
654.158	104.681
654.287	106.103
654.415	104.603
654.543	105.483
654.671	105.552
654.799	105.569
654.927	105.353
655.055	108.466
655.183	104.690
655.312	106.129
655.440	105.310
655.568	106.888
655.696	104.353
655.824	103.741
655.952	105.276
656.080	103.440
656.208	104.647
656.337	105.138
656.465	105.871
656.593	105.095
656.721	102.897
656.849	105.741
656.977	104.905
657.105	103.784
657.233	104.940
657.362	108.241
657.490	106.578
657.618	104.612
657.746	102.931
657.874	105.103
658.002	106.353
658.130	103.698
658.258	106.931
658.387	104.716
658.515	106.267
658.643	107.914
658.771	104.707
658.899	102.603
659.027	105.216
659.155	105.009
659.283	102.914
659.412	104.233
659.540	103.526
659.668	104.672
659.796	106.586
659.924	109.655
660.052	107.655
660.180	106.026
660.308	105.181
660.437	104.078
660.565	107.491
660.693	105.422
660.821	104.483
660.949	104.586
661.077	106.776
661.205	105.086
661.333	105.517
661.462	107.457
661.590	104.310
661.718	104.931
661.846	105.009
661.974	104.707
662.102	107.388
662.230	105.845
662.358	104.379
662.487	104.095
662.615	105.543
662.743	104.483
662.871	103.500
662.999	104.862
663.127	104.052
663.255	105.509
663.383	104.897
663.512	106.250
663.640	105.405
663.768	105.216
663.896	108.690
664.024	108.362
664.152	110.957
664.280	103.379
664.408	103.793
664.537	106.897
664.665	103.543
664.793	106.095
664.921	114.216
665.049	109.690
665.177	106.250
665.305	105.974
665.433	106.526
665.562	107.397
665.690	106.362
665.818	105.905
665.946	106.836
666.074	108.991
666.202	107.707
666.330	106.147
666.458	107.181
666.587	105.871
666.715	104.302
666.843	104.914
666.971	103.517
667.099	102.828
667.227	104.819
667.355	108.440
667.483	109.914
667.612	106.569
667.740	104.147
667.868	105.828
667.996	104.336
668.124	105.259
668.252	107.422
668.380	108.379
668.508	106.629
668.637	106.466
668.765	107.457
668.893	105.681
669.021	104.647
669.149	106.759
669.277	107.129
669.405	106.784
669.533	104.707
669.662	106.198
669.790	106.466
669.918	104.241
670.046	103.155
670.174	108.836
670.302	110.164
670.430	104.698
670.558	106.129
670.687	104.845
670.815	105.017
670.943	106.457
671.071	104.241
671.199	102.060
671.327	106.741
671.455	106.069
671.583	105.595
671.712	109.690
671.840	112.198
671.968	106.422
672.096	105.129
672.224	106.897
672.352	112.448
672.480	108.759
672.608	106.897
672.737	106.552
672.865	106.129
672.993	103.638
673.121	102.974
673.249	106.586
673.377	106.853
673.505	105.853
673.633	108.362
673.762	104.871
673.890	108.578
674.018	110.603
674.146	104.776
674.274	106.664
674.402	105.638
674.530	106.983
674.658	108.638
674.787	106.509
674.915	308.397
675.043	108.345
675.171	103.733
675.299	105.302
675.427	105.431
675.555	107.034
675.683	105.845
675.812	104.155
675.940	107.483
676.068	104.974
676.196	104.422
676.324	104.966
676.452	105.147
676.580	106.974
676.708	106.638
676.837	104.690
676.965	106.345
677.093	106.276
677.221	106.897
677.349	111.026
677.477	106.267
677.605	104.440
677.733	104.216
677.862	103.397
677.990	106.078
678.118	104.345
678.246	105.750
678.374	107.983
678.502	103.578
678.630	103.948
678.758	105.457
678.887	104.716
679.015	103.250
679.143	104.595
679.271	104.897
679.399	103.517
679.527	104.914
679.655	104.259
679.783	104.336
679.912	105.052
680.040	105.164
680.168	104.672
680.296	106.034
680.424	108.552
680.552	107.500
680.680	105.483
680.808	105.612
680.937	104.103
681.065	104.534
681.193	104.293
681.321	106.353
681.449	107.586
681.577	104.905
681.705	108.672
681.833	106.414
681.962	104.250
682.090	104.681
682.218	104.241
682.346	106.948
682.474	106.888
682.602	105.474
682.730	105.009
682.858	105.172
682.987	103.733
683.115	105.147
683.243	107.784
683.371	108.241
683.499	109.793
683.627	105.026
683.755	104.862
683.883	103.405
684.012	105.086
684.140	106.474
684.268	106.897
684.396	105.009
684.524	104.233
684.652	105.397
684.780	106.483
684.908	109.095
685.037	105.922
685.165	106.612
685.293	105.466
685.421	109.112
685.549	108.043
685.677	106.983
685.805	104.241
685.933	106.422
686.062	104.655
686.190	110.457
686.318	107.172
686.446	104.983
686.574	104.509
686.702	108.595
686.830	106.129
686.958	103.052
687.087	103.629
687.215	105.724
687.343	104.379
687.471	107.767
687.599	104.560
687.727	103.509
687.855	103.086
687.983	103.681
688.112	105.836
688.240	105.052
688.368	108.724
688.496	108.155
688.624	105.802
688.752	104.966
688.880	103.112
689.008	103.319
689.137	106.095
689.265	104.974
689.393	103.931
689.521	104.284
689.649	105.810
689.777	104.707
689.905	102.957
690.033	105.888
690.162	106.948
690.290	103.121
690.418	105.095
690.546	105.362
690.674	105.526
690.802	106.069
690.930	102.862
691.058	103.966
691.187	103.716
691.315	104.293
691.443	104.440
691.571	104.207
691.699	104.897
691.827	104.267
691.955	104.819
692.083	105.543
692.212	105.776
692.340	105.043
692.468	106.241
692.596	105.552
692.724	104.276
692.852	103.871
692.980	104.966
693.108	104.672
693.237	105.509
693.365	106.155
693.493	106.578
693.621	104.707
693.749	105.491
693.877	106.241
694.005	105.129
694.133	104.767
694.262	103.379
694.390	104.379
694.518	105.000
694.646	105.043
694.774	106.405
694.902	104.172
695.030	102.500
695.158	104.517
695.287	103.388
695.415	105.845
695.543	106.121
695.671	104.784
695.799	108.836
695.927	105.569
696.055	106.759
696.183	107.862
696.312	106.224
696.440	106.095
696.568	105.155
696.696	103.716
696.824	103.957
696.952	103.724
697.080	104.060
697.208	104.664
697.337	104.371
697.465	105.672
697.593	106.491
697.721	104.000
697.849	106.491
697.977	104.302
698.105	104.345
698.233	105.224
698.362	106.793
698.490	107.172
698.618	107.474
698.746	107.647
698.874	105.112
699.002	104.681
699.130	107.353
699.258	105.172
699.387	102.672
699.515	102.388
699.643	106.922
699.771	106.448
699.899	105.647
700.027	104.431
700.155	105.672
700.283	106.155
700.412	105.957
700.540	102.690
700.668	103.233
700.796	105.440
700.924	103.664
701.052	103.716
701.180	103.724
701.308	104.250
701.437	104.509
701.565	105.621
701.693	108.414
701.821	104.457
701.949	105.095
702.077	104.647
702.205	107.302
702.333	105.233
702.462	106.121
702.590	105.164
702.718	105.216
702.846	103.328
702.974	105.164
703.102	103.362
703.230	105.336
703.358	108.905
703.487	103.483
703.615	104.069
703.743	103.716
703.871	104.940
703.999	104.216
704.127	104.362
704.255	106.216
704.383	106.957
704.512	105.198
704.640	105.233
704.768	107.009
704.896	105.267
705.024	105.043
705.152	109.819
705.280	105.914
705.408	104.655
705.537	104.267
705.665	102.379
705.793	102.276
705.921	104.638
706.049	105.190
706.177	106.017
706.305	104.103
706.433	103.888
706.562	106.509
706.690	105.034
706.818	104.448
706.946	103.000
707.074	108.931
707.202	105.250
707.330	103.224
707.458	107.552
707.587	105.371
707.715	103.655
707.843	104.957
707.971	106.379
708.099	104.284
708.227	103.328
708.355	103.216
708.483	105.164
708.612	106.000
708.740	103.207
708.868	104.129
708.996	104.828
709.124	105.819
709.252	107.086
709.380	105.664
709.508	106.793
709.637	107.922
709.765	105.336
709.893	106.181
710.021	108.371
710.149	107.647
710.277	104.871
710.405	103.121
710.533	102.802
710.662	104.767
710.790	102.621
710.918	102.336
711.046	105.698
711.174	106.095
711.302	109.819
711.430	105.164
711.558	104.543
711.687	107.457
711.815	103.371
711.943	103.819
712.071	101.828
712.199	103.517
712.327	102.112
712.455	106.741
712.583	103.491
712.712	105.034
712.840	105.440
712.968	103.922
713.096	103.793
713.224	104.853
713.352	103.121
713.480	104.276
713.608	107.190
713.737	104.586
713.865	103.129
713.993	105.621
714.121	105.784
714.249	104.733
714.377	107.828
714.505	106.543
714.633	105.853
714.762	105.181
714.890	102.931
715.018	104.345
715.146	105.319
715.274	102.862
715.402	107.767
715.530	106.698
715.658	104.241
715.787	102.086
715.915	103.483
716.043	105.414
716.171	105.922
716.299	105.948
716.427	105.440
716.555	103.241
716.683	103.509
716.812	101.362
716.940	103.948
717.068	102.888
717.196	104.250
717.324	104.578
717.452	103.957
717.580	105.310
717.708	104.440
717.837	104.672
717.965	104.647
718.093	104.336
718.221	103.621
718.349	104.491
718.477	105.078
718.605	103.224
718.733	105.440
718.862	102.948
718.990	102.724
719.118	100.897
719.246	102.552
719.374	105.017
719.502	102.836
719.630	102.974
719.758	105.552
719.887	107.914
720.015	105.655
720.143	105.147
720.271	103.750
720.399	107.991
720.527	104.086
720.655	102.310
720.783	103.319
720.912	104.009
721.040	104.914
721.168	104.862
721.296	103.690
721.424	102.328
721.552	104.009
721.680	104.181
721.808	103.940
721.937	105.345
722.065	105.759
722.193	105.388
722.321	105.069
722.449	102.897
722.577	104.190
722.705	104.733
722.833	104.379
722.962	104.784
723.090	106.509
723.218	104.026
723.346	103.078
723.474	103.940
723.602	103.483
723.730	104.466
723.858	102.595
723.987	106.112
724.115	106.267
724.243	103.888
724.371	103.336
724.499	103.328
724.627	103.983
724.755	105.095
724.883	103.810
725.012	105.629
725.140	103.405
725.268	104.379
725.396	104.397
725.524	105.543
725.652	104.259
725.780	102.716
725.908	105.216
726.037	105.750
726.165	102.276
726.293	103.129
726.421	103.405
726.549	102.388
726.677	102.897
726.805	103.431
726.933	103.414
727.062	106.000
727.190	104.672
727.318	104.716
727.446	106.422
727.574	105.198
727.702	106.284
727.830	106.103
727.958	108.526
728.087	109.440
728.215	101.767
728.343	102.853
728.471	105.466
728.599	106.259
728.727	109.655
728.855	105.603
728.983	103.052
729.112	102.509
729.240	106.078
729.368	102.750
729.496	105.043
729.624	104.862
729.752	106.034
729.880	104.569
730.008	106.543
730.137	106.543
730.265	104.862
730.393	106.552
730.521	102.578
730.649	103.405
730.777	103.276
730.905	103.069
731.033	104.569
731.162	105.405
731.290	103.940
731.418	104.267
731.546	105.836
731.674	105.741
731.802	110.310
731.930	105.767
732.058	102.664
732.187	102.121
732.315	103.578
732.443	104.457
732.571	104.284
732.699	103.069
732.827	102.828
732.955	105.241
733.083	104.922
733.212	104.103
733.340	104.181
733.468	107.948
733.596	105.483
733.724	104.543
733.852	104.724
733.980	103.491
734.108	103.603
734.237	103.784
734.365	103.828
734.493	104.578
734.621	108.819
734.749	106.500
734.877	106.172
735.005	109.345
735.133	106.466
735.262	104.052
735.390	105.216
735.518	103.741
735.646	102.810
735.774	105.741
735.902	105.259
736.030	103.931
736.158	104.198
736.287	104.103
736.415	103.724
736.543	105.879
736.671	106.629
736.799	105.293
736.927	103.569
737.055	105.371
737.183	106.716
737.312	104.914
737.440	108.009
737.568	106.526
737.696	105.155
737.824	102.966
737.952	102.095
738.080	105.198
738.208	109.845
738.337	103.095
738.465	105.224
738.593	108.457
738.721	101.474
738.849	102.466
738.977	102.612
739.105	103.603
739.233	101.293
739.362	103.302
739.490	108.664
739.618	104.422
739.746	105.629
739.874	104.129
740.002	104.983
740.130	103.776
740.258	105.922
740.387	105.552
740.515	104.155
740.643	106.509
740.771	103.974
740.899	101.655
741.027	105.078
741.155	103.638
741.283	103.422
741.412	113.621
741.540	106.328
741.668	104.629
741.796	108.897
741.924	102.784
742.052	103.793
742.180	105.216
742.308	101.612
742.437	102.690
742.565	106.345
742.693	107.345
742.821	102.853
742.949	105.233
743.077	105.509
743.205	105.164
743.333	104.905
743.462	106.526
743.590	105.940
743.718	103.397
743.846	103.052
743.974	103.405
744.102	101.362
744.230	108.819
744.358	121.414
