sample1_at_750.00nm_cut_at_1008.00Y_01.dat
15.05.2023
10:52:32
cut middle at Y: 1008.00
top cursor: 1048 down cursor: 968 mean of: 80 lines , 2560 datapoints
wavelength(nm)	intensity[arb. units]
585.996	1389.562
586.124	1368.138
586.252	1359.037
586.380	1369.875
586.508	1370.500
586.637	1371.437
586.765	1372.138
586.893	1374.763
587.021	1373.125
587.149	1388.350
587.277	1400.312
587.405	1393.213
587.533	1385.025
587.662	1392.362
587.790	1394.338
587.918	1397.487
588.046	1405.287
588.174	1409.050
588.302	1421.187
588.430	1407.400
588.558	1413.787
588.687	1416.475
588.815	1440.675
588.943	1424.513
589.071	1432.300
589.199	1450.112
589.327	1420.900
589.455	1419.200
589.583	1439.875
589.712	1444.475
589.840	1441.825
589.968	1422.138
590.096	1438.825
590.224	1444.425
590.352	1435.925
590.480	1447.800
590.608	1449.987
590.737	1447.787
590.865	1453.725
590.993	1456.713
591.121	1463.662
591.249	1465.950
591.377	1456.625
591.505	1452.650
591.633	1459.737
591.762	1471.800
591.890	1479.200
592.018	1459.638
592.146	1476.537
592.274	1483.588
592.402	1465.213
592.530	1458.412
592.658	1475.875
592.787	1487.588
592.915	1478.450
593.043	1499.513
593.171	1491.325
593.299	1512.100
593.427	1507.125
593.555	1503.112
593.683	1515.325
593.812	1511.425
593.940	1512.713
594.068	1515.463
594.196	1540.312
594.324	1518.700
594.452	1534.800
594.580	1537.200
594.708	1531.463
594.837	1550.975
594.965	1557.725
595.093	1560.600
595.221	1566.138
595.349	1581.862
595.477	1583.312
595.605	1568.787
595.733	1591.562
595.862	1580.275
595.990	1592.463
596.118	1606.362
596.246	1597.150
596.374	1619.125
596.502	1627.912
596.630	1635.700
596.758	1631.787
596.887	1633.888
597.015	1653.213
597.143	1613.825
597.271	1646.062
597.399	1645.562
597.527	1656.000
597.655	1653.750
597.783	1663.263
597.912	1638.425
598.040	1650.912
598.168	1656.225
598.296	1655.687
598.424	1639.687
598.552	1656.150
598.680	1656.800
598.808	1637.350
598.937	1674.037
599.065	1667.263
599.193	1663.362
599.321	1635.600
599.449	1666.750
599.577	1659.338
599.705	1664.662
599.833	1648.225
599.962	1648.200
600.090	1665.162
600.218	1654.062
600.346	1672.588
600.474	1661.125
600.602	1677.312
600.730	1679.575
600.858	1668.287
600.987	1675.150
601.115	1672.062
601.243	1665.550
601.371	1672.575
601.499	1688.513
601.627	1691.787
601.755	1700.237
601.883	1710.362
602.012	1716.862
602.140	1710.625
602.268	1717.937
602.396	1732.787
602.524	1715.963
602.652	1737.062
602.780	1734.375
602.908	1749.100
603.037	1754.850
603.165	1752.412
603.293	1776.550
603.421	1784.362
603.549	1773.900
603.677	1814.088
603.805	1779.525
603.933	1827.687
604.062	1795.325
604.190	1830.612
604.318	1812.362
604.446	1837.513
604.574	1838.100
604.702	1853.588
604.830	1850.850
604.958	1853.825
605.087	1887.662
605.215	1885.700
605.343	1888.263
605.471	1895.263
605.599	1909.350
605.727	1916.088
605.855	1927.575
605.983	1912.963
606.112	1938.350
606.240	1952.300
606.368	1936.812
606.496	1961.412
606.624	1930.700
606.752	1946.425
606.880	1945.675
607.008	1962.975
607.137	1977.900
607.265	1984.963
607.393	1987.000
607.521	1982.375
607.649	1963.800
607.777	1974.075
607.905	1976.500
608.033	1993.112
608.162	1975.825
608.290	1989.875
608.418	2013.388
608.546	1991.263
608.674	2021.513
608.802	2006.713
608.930	2023.950
609.058	2003.075
609.187	2006.000
609.315	2007.675
609.443	2016.125
609.571	2025.325
609.699	2012.025
609.827	2014.100
609.955	2011.263
610.083	2009.525
610.212	2006.600
610.340	2007.675
610.468	2019.725
610.596	2031.638
610.724	2020.275
610.852	2041.025
610.980	2013.375
611.108	2037.237
611.237	2035.862
611.365	2037.287
611.493	2030.775
611.621	2052.300
611.749	2054.488
611.877	2060.925
612.005	2055.113
612.133	2042.100
612.262	2062.775
612.390	2067.963
612.518	2059.400
612.646	2049.950
612.774	2059.613
612.902	2077.787
613.030	2069.963
613.158	2079.287
613.287	2117.450
613.415	2097.687
613.543	2091.800
613.671	2093.675
613.799	2117.325
613.927	2104.225
614.055	2105.350
614.183	2135.175
614.312	2114.088
614.440	2129.675
614.568	2133.863
614.696	2153.525
614.824	2151.137
614.952	2133.475
615.080	2163.537
615.208	2177.200
615.337	2186.675
615.465	2182.738
615.593	2204.437
615.721	2207.088
615.849	2207.238
615.977	2218.050
616.105	2216.025
616.233	2225.825
616.362	2250.875
616.490	2222.012
616.618	2243.238
616.746	2232.050
616.874	2256.800
617.002	2263.762
617.130	2279.800
617.258	2292.950
617.387	2258.937
617.515	2272.437
617.643	2280.675
617.771	2294.363
617.899	2304.812
618.027	2274.988
618.155	2318.450
618.283	2290.387
618.412	2305.088
618.540	2321.125
618.668	2308.537
618.796	2309.900
618.924	2368.713
619.052	2326.137
619.180	2310.225
619.308	2340.387
619.437	2327.238
619.565	2343.662
619.693	2331.437
619.821	2346.488
619.949	2310.463
620.077	2349.650
620.205	2355.500
620.333	2346.287
620.462	2363.363
620.590	2392.625
620.718	2354.400
620.846	2393.900
620.974	2410.963
621.102	2375.988
621.230	2354.075
621.358	2423.537
621.487	2360.125
621.615	2378.287
621.743	2395.775
621.871	2380.137
621.999	2407.125
622.127	2390.450
622.255	2374.387
622.383	2394.787
622.512	2395.500
622.640	2451.575
622.768	2386.075
622.896	2401.963
623.024	2390.637
623.152	2450.925
623.280	2431.412
623.408	2392.463
623.537	2420.338
623.665	2396.713
623.793	2432.125
623.921	2403.062
624.049	2398.187
624.177	2406.850
624.305	2424.375
624.433	2427.512
624.562	2424.650
624.690	2420.387
624.818	2447.425
624.946	2529.338
625.074	2452.988
625.202	2433.400
625.330	2416.412
625.458	2467.875
625.587	2418.950
625.715	2467.562
625.843	2508.312
625.971	2453.363
626.099	2449.575
626.227	2449.863
626.355	2433.175
626.483	2506.637
626.612	2443.725
626.740	2419.675
626.868	2483.200
626.996	2455.887
627.124	2456.537
627.252	2447.912
627.380	2467.850
627.508	2462.312
627.637	2465.800
627.765	2493.562
627.893	2504.088
628.021	2477.575
628.149	2504.137
628.277	2514.363
628.405	2534.988
628.533	2474.300
628.662	2521.187
628.790	2493.300
628.918	2497.662
629.046	2508.300
629.174	2509.713
629.302	2593.300
629.430	2521.100
629.558	2531.488
629.687	2548.287
629.815	2543.400
629.943	2562.450
630.071	2561.625
630.199	2568.463
630.327	2580.287
630.455	2545.187
630.583	2623.738
630.712	2605.950
630.840	2584.762
630.968	2632.375
631.096	2591.400
631.224	2586.988
631.352	2605.262
631.480	2613.287
631.608	2601.613
631.737	2699.900
631.865	2762.463
631.993	2612.600
632.121	2718.350
632.249	2689.500
632.377	2691.162
632.505	2672.950
632.633	2627.412
632.762	2694.937
632.890	2757.662
633.018	2664.025
633.146	2684.287
633.274	2712.537
633.402	2679.463
633.530	2672.625
633.658	2803.037
633.787	2657.863
633.915	2738.137
634.043	2694.675
634.171	2695.412
634.299	2745.025
634.427	2788.463
634.555	2731.375
634.683	2711.488
634.812	2722.037
634.940	2718.963
635.068	2675.775
635.196	2726.088
635.324	2729.812
635.452	2787.475
635.580	2690.238
635.708	2715.225
635.837	2745.000
635.965	2752.762
636.093	2736.575
636.221	2679.250
636.349	2776.125
636.477	2685.137
636.605	2843.887
636.733	2691.100
636.862	2690.963
636.990	2725.113
637.118	2756.887
637.246	2728.963
637.374	2680.437
637.502	2689.625
637.630	2699.387
637.758	2708.625
637.887	2679.275
638.015	2679.400
638.143	2701.450
638.271	2682.713
638.399	2701.125
638.527	2674.225
638.655	2654.175
638.783	2798.562
638.912	2714.762
639.040	2679.125
639.168	2717.275
639.296	2684.025
639.424	2786.175
639.552	2666.762
639.680	2702.213
639.808	2716.875
639.937	2653.350
640.065	2685.575
640.193	2746.488
640.321	2664.025
640.449	2744.187
640.577	2738.363
640.705	2689.812
640.833	2768.338
640.962	2688.463
641.090	2678.050
641.218	2683.187
641.346	2692.075
641.474	2699.300
641.602	2661.713
641.730	2679.437
641.858	2683.113
641.987	2739.988
642.115	2688.925
642.243	2732.613
642.371	2713.412
642.499	2715.850
642.627	2711.875
642.755	2768.512
642.883	2776.650
643.012	2730.475
643.140	2701.550
643.268	2720.300
643.396	2736.900
643.524	2846.375
643.652	2721.488
643.780	2739.687
643.908	2734.750
644.037	2841.437
644.165	2716.300
644.293	2743.700
644.421	2728.150
644.549	2801.625
644.677	2738.975
644.805	2789.475
644.933	2743.238
645.062	2749.588
645.190	2753.500
645.318	2831.338
645.446	2780.450
645.574	2790.225
645.702	2762.613
645.830	2937.687
645.958	2768.825
646.087	2904.775
646.215	2772.350
646.343	2931.500
646.471	2823.800
646.599	2840.875
646.727	2778.025
646.855	2792.225
646.983	2829.238
647.112	2785.963
647.240	2947.125
647.368	2777.200
647.496	2857.800
647.624	2756.000
647.752	2767.687
647.880	2800.113
648.008	2799.613
648.137	2805.113
648.265	2779.825
648.393	2782.787
648.521	2800.662
648.649	2805.475
648.777	2789.238
648.905	2782.137
649.033	2807.387
649.162	2802.662
649.290	2769.325
649.418	2827.863
649.546	2805.187
649.674	2840.088
649.802	2794.750
649.930	2931.088
650.058	2748.088
650.187	2799.775
650.315	2742.238
650.443	2801.412
650.571	2761.637
650.699	2744.062
650.827	2754.363
650.955	2769.512
651.083	2756.125
651.212	2813.500
651.340	2829.000
651.468	2770.312
651.596	2726.912
651.724	2722.238
651.852	2754.937
651.980	2729.925
652.108	2837.025
652.237	2754.512
652.365	2816.500
652.493	2713.988
652.621	2725.075
652.749	2797.963
652.877	2702.713
653.005	2757.850
653.133	2702.937
653.262	2759.463
653.390	2679.137
653.518	2810.225
653.646	2715.975
653.774	2839.937
653.902	2743.950
654.030	2681.850
654.158	2709.963
654.287	2676.137
654.415	2708.463
654.543	2717.137
654.671	2748.488
654.799	2680.050
654.927	2669.187
655.055	2660.550
655.183	2693.825
655.312	2696.875
655.440	2699.588
655.568	2669.037
655.696	2737.575
655.824	2758.137
655.952	2676.213
656.080	2640.275
656.208	2783.375
656.337	2666.325
656.465	2675.800
656.593	2709.525
656.721	2651.713
656.849	2707.800
656.977	2661.912
657.105	2656.950
657.233	2631.450
657.362	2638.650
657.490	2638.437
657.618	2659.050
657.746	2635.550
657.874	2611.350
658.002	2591.250
658.130	2626.275
658.258	2609.025
658.387	2629.250
658.515	2584.425
658.643	2638.825
658.771	2603.325
658.899	2619.238
659.027	2610.437
659.155	2616.863
659.283	2721.463
659.412	2594.738
659.540	2666.213
659.668	2580.687
659.796	2618.562
659.924	2659.500
660.052	2580.287
660.180	2611.412
660.308	2575.588
660.437	2592.475
660.565	2576.963
660.693	2568.750
660.821	2568.200
660.949	2559.850
661.077	2554.912
661.205	2577.375
661.333	2542.900
661.462	2620.687
661.590	2582.613
661.718	2648.637
661.846	2593.875
661.974	2647.625
662.102	2557.887
662.230	2571.588
662.358	2541.937
662.487	2543.113
662.615	2530.600
662.743	2530.687
662.871	2538.950
662.999	2517.650
663.127	2526.512
663.255	2578.225
663.383	2581.750
663.512	2527.950
663.640	2520.575
663.768	2508.875
663.896	2539.562
664.024	2525.925
664.152	2528.488
664.280	2543.463
664.408	2502.375
664.537	2526.975
664.665	2488.075
664.793	2475.037
664.921	2488.650
665.049	2503.937
665.177	2505.050
665.305	2488.275
665.433	2472.350
665.562	2464.775
665.690	2461.375
665.818	2534.475
665.946	2472.075
666.074	2470.375
666.202	2450.900
666.330	2485.988
666.458	2454.963
666.587	2451.700
666.715	2476.275
666.843	2443.325
666.971	2436.338
667.099	2463.937
667.227	2463.213
667.355	2453.150
667.483	2440.675
667.612	2437.125
667.740	2448.637
667.868	2476.800
667.996	2430.537
668.124	2429.650
668.252	2437.000
668.380	2422.037
668.508	2437.088
668.637	2417.838
668.765	2399.850
668.893	2423.338
669.021	2405.300
669.149	2420.812
669.277	2406.887
669.405	2377.375
669.533	2414.738
669.662	2459.738
669.790	2389.925
669.918	2409.650
670.046	2380.250
670.174	2410.863
670.302	2393.075
670.430	2355.775
670.558	2378.863
670.687	2372.713
670.815	2410.850
670.943	2349.375
671.071	2340.137
671.199	2352.650
671.327	2338.213
671.455	2340.725
671.583	2337.512
671.712	2379.588
671.840	2325.062
671.968	2306.800
672.096	2292.562
672.224	2309.613
672.352	2323.300
672.480	2306.375
672.608	2280.937
672.737	2286.488
672.865	2315.125
672.993	2259.488
673.121	2266.262
673.249	2277.300
673.377	2245.725
673.505	2262.800
673.633	2230.762
673.762	2240.537
673.890	2242.887
674.018	2262.600
674.146	2224.812
674.274	2234.100
674.402	2232.375
674.530	2218.463
674.658	2215.250
674.787	2193.075
674.915	2175.775
675.043	2179.338
675.171	2183.287
675.299	2180.400
675.427	2165.762
675.555	2164.725
675.683	2164.213
675.812	2136.963
675.940	2136.000
676.068	2153.525
676.196	2139.937
676.324	2133.412
676.452	2107.262
676.580	2102.375
676.708	2104.275
676.837	2127.800
676.965	2087.725
677.093	2113.312
677.221	2093.713
677.349	2069.912
677.477	2069.000
677.605	2042.437
677.733	2068.450
677.862	2046.713
677.990	2042.088
678.118	2041.862
678.246	2015.525
678.374	2016.650
678.502	2006.075
678.630	2006.450
678.758	1992.075
678.887	2002.125
679.015	2006.638
679.143	1992.412
679.271	1975.463
679.399	1980.825
679.527	1968.900
679.655	1961.975
679.783	1973.562
679.912	1959.175
680.040	1945.025
680.168	1933.575
680.296	1916.187
680.424	1925.062
680.552	1922.600
680.680	1924.050
680.808	1909.888
680.937	1909.750
681.065	1897.675
681.193	1895.975
681.321	1905.625
681.449	1899.412
681.577	1890.750
681.705	1873.350
681.833	1866.000
681.962	1861.850
682.090	1876.437
682.218	1866.850
682.346	1852.862
682.474	1862.763
682.602	1839.700
682.730	1848.687
682.858	1832.275
682.987	1830.562
683.115	1823.588
683.243	1816.237
683.371	1815.575
683.499	1797.400
683.627	1821.250
683.755	1806.700
683.883	1793.200
684.012	1797.175
684.140	1783.875
684.268	1776.213
684.396	1800.987
684.524	1787.075
684.652	1775.138
684.780	1773.263
684.908	1772.312
685.037	1769.100
685.165	1754.763
685.293	1762.050
685.421	1737.162
685.549	1729.737
685.677	1736.625
685.805	1725.487
685.933	1733.850
686.062	1720.050
686.190	1722.437
686.318	1724.175
686.446	1723.000
686.574	1707.350
686.702	1716.375
686.830	1702.037
686.958	1690.263
687.087	1696.987
687.215	1683.300
687.343	1691.850
687.471	1699.850
687.599	1654.725
687.727	1671.088
687.855	1681.775
687.983	1659.200
688.112	1663.550
688.240	1644.537
688.368	1660.312
688.496	1650.463
688.624	1645.237
688.752	1642.963
688.880	1644.325
689.008	1625.112
689.137	1625.213
689.265	1626.412
689.393	1606.412
689.521	1614.900
689.649	1615.912
689.777	1595.963
689.905	1596.925
690.033	1591.713
690.162	1570.700
690.290	1573.750
690.418	1575.575
690.546	1606.075
690.674	1573.425
690.802	1557.138
690.930	1568.263
691.058	1555.737
691.187	1535.450
691.315	1566.500
691.443	1547.725
691.571	1539.963
691.699	1520.237
691.827	1521.325
691.955	1522.013
692.083	1508.725
692.212	1509.800
692.340	1513.912
692.468	1505.825
692.596	1490.900
692.724	1494.463
692.852	1475.800
692.980	1474.300
693.108	1472.750
693.237	1461.625
693.365	1458.875
693.493	1461.225
693.621	1435.650
693.749	1443.537
693.877	1442.600
694.005	1433.037
694.133	1431.138
694.262	1414.375
694.390	1404.013
694.518	1401.800
694.646	1390.675
694.774	1408.500
694.902	1392.638
695.030	1411.650
695.158	1373.425
695.287	1374.975
695.415	1370.638
695.543	1367.200
695.671	1356.200
695.799	1342.787
695.927	1328.037
696.055	1341.300
696.183	1350.638
696.312	1338.612
696.440	1315.713
696.568	1320.925
696.696	1309.687
696.824	1305.400
696.952	1298.375
697.080	1291.213
697.208	1305.525
697.337	1287.025
697.465	1270.350
697.593	1269.912
697.721	1268.213
697.849	1253.487
697.977	1270.112
698.105	1266.200
698.233	1256.487
698.362	1234.750
698.490	1246.925
698.618	1244.125
698.746	1231.612
698.874	1235.312
699.002	1245.687
699.130	1221.737
699.258	1211.562
699.387	1183.050
699.515	1188.950
699.643	1199.888
699.771	1201.850
699.899	1186.213
700.027	1182.425
700.155	1185.687
700.283	1176.375
700.412	1163.775
700.540	1157.850
700.668	1146.600
700.796	1153.763
700.924	1143.213
701.052	1146.875
701.180	1135.600
701.308	1138.675
701.437	1121.937
701.565	1139.513
701.693	1115.475
701.821	1129.500
701.949	1119.450
702.077	1092.562
702.205	1109.900
702.333	1099.350
702.462	1094.575
702.590	1089.862
702.718	1083.037
702.846	1077.475
702.974	1084.375
703.102	1072.838
703.230	1075.925
703.358	1044.088
703.487	1031.000
703.615	1058.062
703.743	1051.763
703.871	1048.600
703.999	1020.600
704.127	1025.263
704.255	1021.362
704.383	1031.638
704.512	1015.562
704.640	1019.400
704.768	989.562
704.896	998.900
705.024	992.737
705.152	985.025
705.280	987.725
705.408	977.800
705.537	977.200
705.665	967.600
705.793	973.850
705.921	954.650
706.049	969.487
706.177	956.388
706.305	949.475
706.433	943.825
706.562	953.437
706.690	937.050
706.818	923.325
706.946	938.725
707.074	920.187
707.202	921.538
707.330	916.775
707.458	906.725
707.587	907.475
707.715	905.487
707.843	894.712
707.971	900.862
708.099	893.600
708.227	879.888
708.355	880.925
708.483	873.413
708.612	879.263
708.740	870.187
708.868	868.913
708.996	869.337
709.124	867.163
709.252	855.937
709.380	858.413
709.508	836.587
709.637	830.487
709.765	844.700
709.893	830.875
710.021	833.500
710.149	820.663
710.277	839.862
710.405	828.175
710.533	822.362
710.662	813.987
710.790	817.525
710.918	808.975
711.046	806.987
711.174	801.163
711.302	795.800
711.430	790.725
711.558	793.538
711.687	783.687
711.815	783.525
711.943	787.288
712.071	773.788
712.199	777.212
712.327	770.425
712.455	769.025
712.583	769.375
712.712	775.825
712.840	749.600
712.968	752.187
713.096	757.888
713.224	748.712
713.352	746.737
713.480	745.587
713.608	739.625
713.737	732.263
713.865	726.600
713.993	725.513
714.121	710.425
714.249	721.362
714.377	714.038
714.505	724.462
714.633	714.812
714.762	702.462
714.890	698.525
715.018	703.750
715.146	691.263
715.274	698.950
715.402	688.075
715.530	695.737
715.658	683.587
715.787	687.187
715.915	678.163
716.043	680.425
716.171	677.312
716.299	692.300
716.427	671.337
716.555	671.413
716.683	663.025
716.812	668.600
716.940	661.812
717.068	646.187
717.196	658.062
717.324	653.475
717.452	652.000
717.580	643.725
717.708	639.462
717.837	648.475
717.965	641.425
718.093	626.862
718.221	629.775
718.349	631.275
718.477	627.475
718.605	614.362
718.733	626.737
718.862	609.975
718.990	610.812
719.118	618.175
719.246	608.763
719.374	607.312
719.502	613.175
719.630	609.737
719.758	597.888
719.887	603.950
720.015	602.025
720.143	591.763
720.271	596.038
720.399	591.100
720.527	585.638
720.655	583.975
720.783	578.237
720.912	579.025
721.040	587.550
721.168	573.087
721.296	570.950
721.424	572.650
721.552	560.837
721.680	559.050
721.808	561.712
721.937	561.538
722.065	554.937
722.193	547.650
722.321	554.625
722.449	547.050
722.577	552.612
722.705	539.350
722.833	535.150
722.962	541.225
723.090	522.475
723.218	530.650
723.346	532.712
723.474	529.200
723.602	530.125
723.730	520.500
723.858	531.975
723.987	517.125
724.115	524.175
724.243	518.550
724.371	514.562
724.499	516.087
724.627	509.562
724.755	513.013
724.883	509.238
725.012	508.725
725.140	503.387
725.268	506.475
725.396	498.913
725.524	485.450
725.652	496.325
725.780	489.712
725.908	484.637
726.037	484.137
726.165	484.738
726.293	474.600
726.421	472.312
726.549	479.525
726.677	469.512
726.805	472.825
726.933	473.950
727.062	463.562
727.190	466.625
727.318	466.125
727.446	461.550
727.574	464.925
727.702	453.650
727.830	454.925
727.958	457.475
728.087	449.363
728.215	448.562
728.343	442.413
728.471	446.325
728.599	440.100
728.727	445.525
728.855	439.575
728.983	435.750
729.112	426.687
729.240	439.262
729.368	432.675
729.496	430.000
729.624	434.238
729.752	422.812
729.880	428.363
730.008	427.950
730.137	418.663
730.265	424.325
730.393	420.913
730.521	407.863
730.649	412.350
730.777	416.462
730.905	406.450
731.033	411.175
731.162	407.350
731.290	413.113
731.418	408.962
731.546	426.113
731.674	399.350
731.802	400.512
731.930	404.137
732.058	393.288
732.187	392.613
732.315	393.988
732.443	397.425
732.571	381.562
732.699	391.175
732.827	385.762
732.955	374.462
733.083	374.500
733.212	375.350
733.340	379.575
733.468	374.725
733.596	376.337
733.724	369.913
733.852	377.625
733.980	373.062
734.108	381.275
734.237	378.325
734.365	361.875
734.493	371.637
734.621	365.600
734.749	360.275
734.877	358.400
735.005	363.475
735.133	365.712
735.262	358.750
735.390	360.762
735.518	354.925
735.646	352.062
735.774	354.925
735.902	359.325
736.030	354.012
736.158	359.363
736.287	344.825
736.415	349.238
736.543	343.087
736.671	341.275
736.799	343.788
736.927	348.375
