sample16_PP_at_750.00nm_cut_at_1008.00Y_01.dat
15.05.2023
12:34:50
cut middle at Y: 1008.00
top cursor: 1048 down cursor: 968 mean of: 80 lines , 2560 datapoints
wavelength(nm)	intensity[arb. units]
585.996	1253.513
586.124	1225.537
586.252	1223.713
586.380	1221.125
586.508	1233.912
586.637	1248.187
586.765	1242.638
586.893	1239.088
587.021	1244.775
587.149	1250.287
587.277	1239.487
587.405	1262.588
587.533	1242.250
587.662	1244.088
587.790	1260.550
587.918	1247.875
588.046	1252.400
588.174	1240.900
588.302	1262.225
588.430	1252.250
588.558	1240.937
588.687	1248.263
588.815	1273.187
588.943	1245.662
589.071	1244.963
589.199	1254.812
589.327	1255.687
589.455	1233.625
589.583	1249.737
589.712	1260.612
589.840	1241.500
589.968	1241.050
590.096	1262.225
590.224	1260.900
590.352	1255.200
590.480	1262.013
590.608	1259.562
590.737	1247.612
590.865	1268.287
590.993	1263.550
591.121	1256.888
591.249	1263.525
591.377	1245.175
591.505	1255.287
591.633	1255.050
591.762	1267.588
591.890	1271.500
592.018	1261.187
592.146	1268.513
592.274	1278.650
592.402	1260.987
592.530	1260.675
592.658	1277.112
592.787	1267.362
592.915	1272.625
593.043	1279.950
593.171	1269.588
593.299	1292.125
593.427	1279.675
593.555	1276.437
593.683	1280.825
593.812	1289.525
593.940	1303.325
594.068	1287.912
594.196	1316.300
594.324	1292.013
594.452	1295.875
594.580	1309.825
594.708	1296.062
594.837	1314.775
594.965	1311.037
595.093	1324.338
595.221	1309.050
595.349	1326.138
595.477	1325.187
595.605	1307.612
595.733	1346.963
595.862	1337.000
595.990	1332.037
596.118	1330.350
596.246	1329.125
596.374	1350.100
596.502	1365.650
596.630	1341.175
596.758	1337.250
596.887	1349.350
597.015	1357.487
597.143	1335.950
597.271	1355.925
597.399	1353.187
597.527	1361.325
597.655	1354.925
597.783	1367.125
597.912	1345.850
598.040	1366.263
598.168	1357.963
598.296	1346.062
598.424	1367.225
598.552	1355.525
598.680	1350.263
598.808	1343.662
598.937	1353.812
599.065	1360.112
599.193	1345.638
599.321	1329.562
599.449	1360.075
599.577	1346.425
599.705	1348.650
599.833	1348.150
599.962	1355.687
600.090	1340.138
600.218	1344.050
600.346	1354.925
600.474	1370.787
600.602	1346.463
600.730	1366.250
600.858	1366.000
600.987	1349.800
601.115	1360.237
601.243	1358.537
601.371	1366.600
601.499	1349.400
601.627	1350.638
601.755	1367.638
601.883	1373.975
602.012	1375.475
602.140	1363.825
602.268	1381.713
602.396	1379.463
602.524	1382.513
602.652	1375.725
602.780	1378.925
602.908	1391.875
603.037	1391.700
603.165	1388.000
603.293	1408.412
603.421	1390.763
603.549	1405.338
603.677	1422.312
603.805	1396.763
603.933	1423.875
604.062	1406.225
604.190	1436.838
604.318	1416.975
604.446	1449.500
604.574	1432.975
604.702	1436.625
604.830	1439.450
604.958	1441.037
605.087	1460.812
605.215	1451.500
605.343	1449.225
605.471	1465.825
605.599	1464.100
605.727	1470.112
605.855	1468.025
605.983	1463.425
606.112	1477.912
606.240	1487.575
606.368	1491.475
606.496	1486.650
606.624	1468.013
606.752	1489.412
606.880	1491.912
607.008	1490.463
607.137	1498.362
607.265	1501.125
607.393	1498.750
607.521	1504.912
607.649	1487.013
607.777	1473.400
607.905	1482.450
608.033	1504.237
608.162	1501.362
608.290	1488.362
608.418	1501.325
608.546	1500.912
608.674	1531.787
608.802	1495.812
608.930	1499.662
609.058	1504.013
609.187	1498.750
609.315	1499.062
609.443	1506.112
609.571	1507.662
609.699	1504.050
609.827	1495.225
609.955	1504.300
610.083	1502.550
610.212	1497.937
610.340	1497.075
610.468	1498.487
610.596	1514.025
610.724	1494.713
610.852	1512.562
610.980	1495.687
611.108	1507.625
611.237	1501.138
611.365	1511.600
611.493	1503.263
611.621	1519.338
611.749	1523.037
611.877	1532.213
612.005	1518.775
612.133	1513.662
612.262	1499.162
612.390	1520.475
612.518	1525.775
612.646	1512.550
612.774	1521.263
612.902	1531.425
613.030	1539.100
613.158	1535.175
613.287	1560.987
613.415	1552.812
613.543	1545.325
613.671	1543.475
613.799	1565.037
613.927	1534.350
614.055	1550.237
614.183	1571.437
614.312	1547.250
614.440	1557.925
614.568	1562.138
614.696	1580.825
614.824	1558.725
614.952	1566.338
615.080	1576.050
615.208	1591.825
615.337	1575.025
615.465	1584.638
615.593	1590.750
615.721	1604.937
615.849	1605.787
615.977	1614.812
616.105	1599.588
616.233	1599.912
616.362	1623.800
616.490	1601.362
616.618	1621.513
616.746	1607.375
616.874	1624.125
617.002	1616.937
617.130	1638.625
617.258	1639.025
617.387	1623.162
617.515	1628.737
617.643	1651.437
617.771	1656.275
617.899	1650.825
618.027	1644.900
618.155	1651.187
618.283	1644.950
618.412	1639.213
618.540	1646.388
618.668	1640.050
618.796	1643.937
618.924	1661.487
619.052	1655.838
619.180	1666.037
619.308	1655.713
619.437	1649.562
619.565	1661.850
619.693	1652.300
619.821	1668.550
619.949	1642.412
620.077	1661.200
620.205	1654.812
620.333	1662.263
620.462	1663.862
620.590	1654.325
620.718	1663.525
620.846	1660.375
620.974	1707.325
621.102	1670.812
621.230	1679.825
621.358	1695.737
621.487	1679.075
621.615	1681.225
621.743	1700.588
621.871	1672.937
621.999	1672.612
622.127	1687.162
622.255	1677.250
622.383	1673.775
622.512	1682.700
622.640	1677.237
622.768	1679.700
622.896	1671.725
623.024	1669.300
623.152	1697.725
623.280	1681.900
623.408	1691.287
623.537	1688.650
623.665	1685.975
623.793	1699.987
623.921	1683.412
624.049	1688.687
624.177	1688.650
624.305	1702.737
624.433	1701.787
624.562	1699.950
624.690	1688.687
624.818	1702.287
624.946	1720.325
625.074	1703.537
625.202	1733.338
625.330	1689.838
625.458	1717.100
625.587	1702.975
625.715	1698.588
625.843	1701.612
625.971	1711.200
626.099	1720.713
626.227	1725.200
626.355	1703.612
626.483	1717.075
626.612	1707.362
626.740	1696.500
626.868	1726.612
626.996	1714.463
627.124	1704.213
627.252	1683.550
627.380	1726.763
627.508	1710.187
627.637	1720.975
627.765	1724.812
627.893	1738.987
628.021	1720.588
628.149	1756.937
628.277	1760.650
628.405	1748.825
628.533	1745.112
628.662	1733.650
628.790	1743.950
628.918	1741.725
629.046	1734.312
629.174	1734.850
629.302	1773.225
629.430	1767.838
629.558	1752.300
629.687	1759.700
629.815	1757.888
629.943	1762.312
630.071	1763.737
630.199	1771.062
630.327	1761.875
630.455	1761.537
630.583	1785.825
630.712	1785.075
630.840	1768.763
630.968	1805.150
631.096	1778.937
631.224	1771.187
631.352	1798.175
631.480	1786.112
631.608	1795.112
631.737	1801.025
631.865	1837.088
631.993	1806.562
632.121	1813.362
632.249	1794.250
632.377	1826.475
632.505	1814.050
632.633	1813.263
632.762	1820.088
632.890	1825.725
633.018	1820.312
633.146	1826.862
633.274	1831.375
633.402	1817.537
633.530	1824.950
633.658	1831.625
633.787	1814.987
633.915	1837.187
634.043	1825.187
634.171	1834.475
634.299	1834.000
634.427	1828.062
634.555	1832.225
634.683	1823.275
634.812	1829.638
634.940	1848.350
635.068	1827.437
635.196	1839.287
635.324	1844.875
635.452	1851.037
635.580	1837.900
635.708	1821.850
635.837	1839.450
635.965	1841.750
636.093	1832.787
636.221	1833.037
636.349	1843.350
636.477	1827.375
636.605	1842.388
636.733	1813.888
636.862	1813.112
636.990	1821.687
637.118	1811.625
637.246	1814.350
637.374	1795.900
637.502	1817.150
637.630	1821.687
637.758	1808.537
637.887	1814.412
638.015	1799.562
638.143	1812.650
638.271	1793.800
638.399	1791.287
638.527	1796.925
638.655	1803.687
638.783	1812.787
638.912	1797.237
639.040	1785.125
639.168	1792.638
639.296	1801.975
639.424	1804.275
639.552	1810.425
639.680	1826.250
639.808	1798.487
639.937	1793.475
640.065	1795.737
640.193	1813.838
640.321	1790.862
640.449	1814.875
640.577	1821.187
640.705	1780.525
640.833	1806.350
640.962	1799.300
641.090	1800.562
641.218	1806.975
641.346	1793.025
641.474	1799.075
641.602	1779.475
641.730	1808.287
641.858	1809.525
641.987	1803.362
642.115	1808.050
642.243	1822.138
642.371	1819.900
642.499	1801.787
642.627	1809.937
642.755	1819.025
642.883	1822.550
643.012	1819.412
643.140	1818.138
643.268	1807.000
643.396	1827.925
643.524	1825.200
643.652	1813.300
643.780	1816.200
643.908	1818.162
644.037	1822.662
644.165	1824.475
644.293	1820.412
644.421	1828.612
644.549	1825.638
644.677	1850.775
644.805	1834.187
644.933	1826.375
645.062	1846.100
645.190	1819.687
645.318	1810.112
645.446	1835.825
645.574	1841.200
645.702	1830.562
645.830	1847.700
645.958	1859.312
646.087	1839.588
646.215	1839.175
646.343	1852.638
646.471	1837.450
646.599	1847.850
646.727	1852.725
646.855	1842.263
646.983	1858.225
647.112	1847.525
647.240	1863.037
647.368	1813.963
647.496	1842.338
647.624	1827.775
647.752	1846.463
647.880	1860.138
648.008	1848.825
648.137	1834.312
648.265	1833.737
648.393	1840.463
648.521	1853.825
648.649	1833.162
648.777	1837.700
648.905	1835.800
649.033	1816.275
649.162	1819.875
649.290	1824.213
649.418	1807.825
649.546	1825.287
649.674	1827.675
649.802	1826.075
649.930	1831.125
650.058	1815.138
650.187	1832.200
650.315	1812.900
650.443	1822.450
650.571	1820.700
650.699	1820.600
650.827	1827.025
650.955	1812.687
651.083	1822.550
651.212	1794.700
651.340	1808.150
651.468	1794.687
651.596	1787.437
651.724	1809.600
651.852	1799.725
651.980	1788.950
652.108	1814.325
652.237	1783.675
652.365	1792.888
652.493	1798.525
652.621	1777.625
652.749	1788.362
652.877	1772.375
653.005	1780.362
653.133	1785.112
653.262	1778.537
653.390	1780.975
653.518	1767.175
653.646	1770.475
653.774	1791.575
653.902	1782.675
654.030	1773.088
654.158	1741.500
654.287	1775.700
654.415	1761.463
654.543	1760.612
654.671	1762.800
654.799	1737.300
654.927	1769.025
655.055	1748.850
655.183	1739.662
655.312	1733.537
655.440	1753.500
655.568	1755.675
655.696	1761.862
655.824	1764.487
655.952	1759.700
656.080	1729.525
656.208	1753.162
656.337	1735.338
656.465	1740.475
656.593	1740.425
656.721	1740.562
656.849	1748.812
656.977	1728.625
657.105	1728.612
657.233	1728.537
657.362	1708.575
657.490	1713.750
657.618	1727.088
657.746	1736.312
657.874	1696.513
658.002	1715.013
658.130	1705.838
658.258	1717.787
658.387	1721.787
658.515	1693.225
658.643	1716.800
658.771	1718.138
658.899	1712.088
659.027	1702.125
659.155	1714.812
659.283	1695.013
659.412	1695.612
659.540	1694.112
659.668	1717.775
659.796	1692.838
659.924	1716.213
660.052	1705.025
660.180	1688.175
660.308	1694.200
660.437	1702.562
660.565	1683.925
660.693	1687.037
660.821	1679.725
660.949	1688.937
661.077	1672.963
661.205	1678.437
661.333	1676.187
661.462	1707.475
661.590	1712.787
661.718	1690.525
661.846	1671.175
661.974	1688.862
662.102	1684.325
662.230	1683.213
662.358	1672.588
662.487	1673.850
662.615	1660.075
662.743	1677.800
662.871	1670.250
662.999	1667.775
663.127	1651.263
663.255	1667.162
663.383	1658.800
663.512	1670.562
663.640	1670.638
663.768	1671.750
663.896	1672.588
664.024	1666.037
664.152	1651.412
664.280	1654.425
664.408	1655.125
664.537	1660.013
664.665	1666.638
664.793	1651.575
664.921	1642.175
665.049	1633.575
665.177	1671.600
665.305	1642.700
665.433	1643.700
665.562	1650.713
665.690	1648.687
665.818	1645.812
665.946	1650.013
666.074	1642.037
666.202	1646.812
666.330	1633.713
666.458	1631.525
666.587	1626.650
666.715	1627.162
666.843	1634.912
666.971	1631.362
667.099	1628.425
667.227	1640.187
667.355	1620.275
667.483	1624.975
667.612	1628.275
667.740	1628.625
667.868	1641.075
667.996	1631.763
668.124	1624.425
668.252	1626.112
668.380	1616.100
668.508	1639.525
668.637	1614.625
668.765	1616.450
668.893	1624.250
669.021	1616.125
669.149	1613.537
669.277	1605.925
669.405	1597.575
669.533	1621.425
669.662	1625.987
669.790	1594.325
669.918	1613.388
670.046	1607.463
670.174	1604.675
670.302	1601.812
670.430	1592.638
670.558	1593.150
670.687	1592.300
670.815	1592.950
670.943	1584.125
671.071	1583.475
671.199	1590.225
671.327	1579.187
671.455	1578.775
671.583	1585.888
671.712	1582.513
671.840	1561.463
671.968	1560.787
672.096	1564.575
672.224	1555.237
672.352	1576.812
672.480	1560.412
672.608	1557.287
672.737	1545.388
672.865	1549.375
672.993	1545.912
673.121	1542.638
673.249	1538.912
673.377	1526.463
673.505	1533.300
673.633	1517.025
673.762	1512.237
673.890	1537.838
674.018	1531.412
674.146	1522.175
674.274	1540.075
674.402	1517.425
674.530	1523.862
674.658	1502.800
674.787	1496.500
674.915	1505.437
675.043	1510.437
675.171	1508.100
675.299	1498.850
675.427	1497.000
675.555	1490.937
675.683	1498.250
675.812	1474.900
675.940	1485.838
676.068	1499.763
676.196	1482.937
676.324	1481.375
676.452	1473.937
676.580	1474.588
676.708	1472.112
676.837	1479.937
676.965	1456.912
677.093	1465.300
677.221	1469.062
677.349	1438.963
677.477	1460.500
677.605	1430.000
677.733	1460.787
677.862	1441.287
677.990	1437.800
678.118	1429.487
678.246	1425.062
678.374	1417.050
678.502	1421.737
678.630	1416.138
678.758	1420.412
678.887	1411.763
679.015	1424.325
679.143	1397.937
679.271	1416.487
679.399	1399.388
679.527	1390.037
679.655	1398.325
679.783	1398.550
679.912	1405.037
680.040	1399.625
680.168	1395.812
680.296	1379.737
680.424	1384.975
680.552	1386.725
680.680	1389.713
680.808	1373.275
680.937	1389.275
681.065	1376.662
681.193	1375.950
681.321	1380.875
681.449	1371.850
681.577	1364.912
681.705	1351.162
681.833	1345.225
681.962	1349.362
682.090	1366.225
682.218	1353.250
682.346	1351.250
682.474	1359.250
682.602	1357.912
682.730	1333.537
682.858	1353.800
682.987	1352.075
683.115	1340.175
683.243	1338.725
683.371	1342.325
683.499	1327.100
683.627	1347.575
683.755	1336.287
683.883	1336.175
684.012	1317.612
684.140	1315.287
684.268	1323.175
684.396	1332.225
684.524	1339.150
684.652	1336.975
684.780	1328.850
684.908	1318.562
685.037	1315.725
685.165	1314.875
685.293	1317.000
685.421	1312.600
685.549	1303.888
685.677	1301.950
685.805	1304.000
685.933	1305.850
686.062	1290.000
686.190	1301.287
686.318	1317.888
686.446	1309.062
686.574	1300.925
686.702	1316.513
686.830	1301.600
686.958	1294.050
687.087	1294.925
687.215	1286.138
687.343	1288.100
687.471	1293.450
687.599	1275.713
687.727	1271.125
687.855	1286.612
687.983	1283.400
688.112	1289.375
688.240	1266.187
688.368	1266.550
688.496	1273.725
688.624	1273.650
688.752	1267.875
688.880	1268.162
689.008	1267.237
689.137	1266.425
689.265	1245.062
689.393	1246.625
689.521	1251.100
689.649	1251.050
689.777	1246.888
689.905	1244.175
690.033	1253.013
690.162	1242.763
690.290	1243.225
690.418	1234.175
690.546	1262.513
690.674	1248.737
690.802	1224.550
690.930	1230.300
691.058	1227.425
691.187	1216.225
691.315	1233.875
691.443	1220.812
691.571	1215.625
691.699	1213.537
691.827	1221.037
691.955	1213.937
692.083	1210.612
692.212	1201.987
692.340	1224.463
692.468	1217.513
692.596	1191.062
692.724	1213.888
692.852	1194.013
692.980	1197.825
693.108	1195.862
693.237	1169.400
693.365	1179.600
693.493	1185.937
693.621	1172.513
693.749	1177.525
693.877	1176.412
694.005	1169.400
694.133	1181.987
694.262	1179.412
694.390	1173.600
694.518	1151.250
694.646	1152.875
694.774	1153.400
694.902	1144.588
695.030	1168.500
695.158	1138.412
695.287	1151.850
695.415	1129.775
695.543	1150.362
695.671	1140.763
695.799	1130.237
695.927	1139.100
696.055	1119.925
696.183	1143.325
696.312	1122.987
696.440	1112.162
696.568	1115.537
696.696	1106.950
696.824	1107.125
696.952	1112.037
697.080	1104.125
697.208	1103.975
697.337	1099.300
697.465	1103.237
697.593	1095.662
697.721	1097.050
697.849	1086.312
697.977	1090.838
698.105	1103.062
698.233	1080.787
698.362	1076.787
698.490	1073.450
698.618	1078.250
698.746	1078.325
698.874	1074.175
699.002	1085.187
699.130	1069.287
699.258	1072.888
699.387	1058.287
699.515	1062.200
699.643	1057.362
699.771	1068.875
699.899	1063.050
700.027	1042.787
700.155	1051.925
700.283	1060.338
700.412	1051.075
700.540	1045.138
700.668	1048.525
700.796	1048.350
700.924	1028.025
701.052	1033.513
701.180	1028.112
701.308	1029.312
701.437	1033.300
701.565	1026.575
701.693	1025.975
701.821	1034.700
701.949	1032.037
702.077	1006.462
702.205	1019.250
702.333	1006.362
702.462	1013.013
702.590	1003.825
702.718	1014.163
702.846	1001.763
702.974	997.763
703.102	994.825
703.230	992.788
703.358	986.550
703.487	998.788
703.615	999.437
703.743	961.200
703.871	985.937
703.999	965.962
704.127	974.112
704.255	962.000
704.383	973.462
704.512	967.100
704.640	965.800
704.768	954.138
704.896	956.062
705.024	953.038
705.152	948.225
705.280	948.225
705.408	947.750
705.537	947.687
705.665	947.312
705.793	938.200
705.921	930.837
706.049	943.212
706.177	933.425
706.305	939.350
706.433	928.538
706.562	929.987
706.690	923.913
706.818	920.712
706.946	928.812
707.074	919.225
707.202	907.525
707.330	904.437
707.458	909.013
707.587	895.962
707.715	907.975
707.843	904.187
707.971	909.800
708.099	895.062
708.227	889.025
708.355	891.237
708.483	897.000
708.612	888.075
708.740	892.725
708.868	875.413
708.996	894.687
709.124	899.750
709.252	878.325
709.380	873.225
709.508	865.312
709.637	872.062
709.765	871.812
709.893	871.050
710.021	869.462
710.149	873.500
710.277	866.825
710.405	863.750
710.533	853.225
710.662	860.138
710.790	858.237
710.918	855.062
711.046	854.325
711.174	856.312
711.302	850.062
711.430	835.925
711.558	855.975
711.687	831.575
711.815	837.587
711.943	845.875
712.071	828.475
712.199	831.100
712.327	826.450
712.455	821.200
712.583	823.187
712.712	845.200
712.840	826.175
712.968	823.362
713.096	823.725
713.224	827.000
713.352	823.250
713.480	811.687
713.608	808.125
713.737	810.550
713.865	805.625
713.993	800.138
714.121	804.337
714.249	806.675
714.377	799.138
714.505	809.962
714.633	788.025
714.762	792.575
714.890	806.513
715.018	802.437
715.146	783.425
715.274	788.150
715.402	791.300
715.530	795.700
715.658	783.350
715.787	785.413
715.915	776.825
716.043	778.975
716.171	781.350
716.299	794.200
716.427	775.788
716.555	778.025
716.683	762.625
716.812	764.337
716.940	775.013
717.068	761.750
717.196	758.013
717.324	763.312
717.452	754.300
717.580	762.362
717.708	755.362
717.837	770.875
717.965	754.850
718.093	752.263
718.221	750.750
718.349	745.612
718.477	750.837
718.605	744.225
718.733	748.638
718.862	728.700
718.990	738.650
719.118	733.700
719.246	737.800
719.374	729.112
719.502	736.975
719.630	735.700
719.758	736.388
719.887	731.300
720.015	732.587
720.143	715.712
720.271	729.225
720.399	730.425
720.527	715.125
720.655	715.038
720.783	714.900
720.912	714.663
721.040	722.150
721.168	710.413
721.296	711.300
721.424	714.437
721.552	706.150
721.680	700.775
721.808	710.612
721.937	712.663
722.065	692.200
722.193	687.763
722.321	687.062
722.449	695.638
722.577	692.263
722.705	685.737
722.833	685.413
722.962	686.712
723.090	679.362
723.218	681.400
723.346	687.075
723.474	674.788
723.602	682.225
723.730	676.337
723.858	676.250
723.987	686.487
724.115	670.388
724.243	662.212
724.371	668.475
724.499	669.125
724.627	669.263
724.755	664.788
724.883	674.187
725.012	657.775
725.140	658.163
725.268	654.112
725.396	654.163
725.524	650.050
725.652	648.788
725.780	645.325
725.908	635.750
726.037	645.812
726.165	645.025
726.293	640.513
726.421	631.413
726.549	640.075
726.677	633.025
726.805	629.500
726.933	635.663
727.062	617.937
727.190	628.362
727.318	622.600
727.446	626.050
727.574	625.600
727.702	623.925
727.830	612.750
727.958	629.212
728.087	616.425
728.215	613.437
728.343	610.987
728.471	618.100
728.599	596.437
728.727	613.825
728.855	608.900
728.983	603.975
729.112	606.750
729.240	607.788
729.368	592.587
729.496	598.638
729.624	602.187
729.752	592.062
729.880	595.038
730.008	590.675
730.137	591.362
730.265	591.550
730.393	595.538
730.521	581.987
730.649	591.913
730.777	582.175
730.905	575.263
731.033	585.288
731.162	579.650
731.290	582.987
731.418	573.962
731.546	593.962
731.674	575.112
731.802	574.975
731.930	575.000
732.058	569.425
732.187	570.100
732.315	562.962
732.443	581.325
732.571	562.725
732.699	564.350
732.827	568.837
732.955	558.675
733.083	555.375
733.212	557.388
733.340	557.525
733.468	557.125
733.596	558.900
733.724	551.312
733.852	549.587
733.980	545.725
734.108	560.425
734.237	555.263
734.365	543.850
734.493	554.100
734.621	547.100
734.749	544.225
734.877	553.312
735.005	539.875
735.133	543.050
735.262	544.737
735.390	545.663
735.518	548.062
735.646	539.487
735.774	533.987
735.902	539.900
736.030	536.413
736.158	542.237
736.287	542.163
736.415	536.000
736.543	529.900
736.671	526.050
736.799	535.937
736.927	538.725
737.055	527.562
