sample7_PS_at_750.00nm_cut_at_1008.00Y_01.dat
15.05.2023
11:04:11
cut middle at Y: 1008.00
top cursor: 1048 down cursor: 968 mean of: 80 lines , 2560 datapoints
wavelength(nm)	intensity[arb. units]
585.996	1683.162
586.124	1645.550
586.252	1639.400
586.380	1626.775
586.508	1633.250
586.637	1643.562
586.765	1637.487
586.893	1638.338
587.021	1650.388
587.149	1648.750
587.277	1654.025
587.405	1661.425
587.533	1643.800
587.662	1675.100
587.790	1681.725
587.918	1669.487
588.046	1679.138
588.174	1674.362
588.302	1689.450
588.430	1679.875
588.558	1668.812
588.687	1684.050
588.815	1704.562
588.943	1697.662
589.071	1691.187
589.199	1701.350
589.327	1679.750
589.455	1676.200
589.583	1679.237
589.712	1696.025
589.840	1694.500
589.968	1684.775
590.096	1699.437
590.224	1697.838
590.352	1696.263
590.480	1692.862
590.608	1702.687
590.737	1694.075
590.865	1707.388
590.993	1700.838
591.121	1704.625
591.249	1713.450
591.377	1700.987
591.505	1694.175
591.633	1691.750
591.762	1718.263
591.890	1715.787
592.018	1715.025
592.146	1719.325
592.274	1732.162
592.402	1722.362
592.530	1720.662
592.658	1724.175
592.787	1735.725
592.915	1726.125
593.043	1734.937
593.171	1720.588
593.299	1751.013
593.427	1746.213
593.555	1738.750
593.683	1744.225
593.812	1743.263
593.940	1771.800
594.068	1770.037
594.196	1782.575
594.324	1748.437
594.452	1790.987
594.580	1801.388
594.708	1791.487
594.837	1803.588
594.965	1809.412
595.093	1803.013
595.221	1799.062
595.349	1822.112
595.477	1822.562
595.605	1817.888
595.733	1869.237
595.862	1853.175
595.990	1837.125
596.118	1856.650
596.246	1864.050
596.374	1882.162
596.502	1889.175
596.630	1885.475
596.758	1885.825
596.887	1894.900
597.015	1912.612
597.143	1868.950
597.271	1892.225
597.399	1923.750
597.527	1933.862
597.655	1908.588
597.783	1923.763
597.912	1915.500
598.040	1916.475
598.168	1918.375
598.296	1923.700
598.424	1909.900
598.552	1917.812
598.680	1920.312
598.808	1915.000
598.937	1941.963
599.065	1937.487
599.193	1916.150
599.321	1894.888
599.449	1935.750
599.577	1927.850
599.705	1915.475
599.833	1917.125
599.962	1907.812
600.090	1929.375
600.218	1927.662
600.346	1937.713
600.474	1950.950
600.602	1951.250
600.730	1945.700
600.858	1948.763
600.987	1947.150
601.115	1943.537
601.243	1952.050
601.371	1974.275
601.499	1967.100
601.627	1979.350
601.755	1996.263
601.883	1990.062
602.012	1991.750
602.140	1986.725
602.268	2013.987
602.396	2023.700
602.524	2005.550
602.652	2013.312
602.780	2017.588
602.908	2040.350
603.037	2051.150
603.165	2067.738
603.293	2082.662
603.421	2082.125
603.549	2069.550
603.677	2102.150
603.805	2089.162
603.933	2121.037
604.062	2109.775
604.190	2146.350
604.318	2139.062
604.446	2169.025
604.574	2162.900
604.702	2173.775
604.830	2171.863
604.958	2211.912
605.087	2216.675
605.215	2218.250
605.343	2224.125
605.471	2236.988
605.599	2267.338
605.727	2260.412
605.855	2269.300
605.983	2267.738
606.112	2292.175
606.240	2308.600
606.368	2323.437
606.496	2341.562
606.624	2301.200
606.752	2330.150
606.880	2353.537
607.008	2390.787
607.137	2379.162
607.265	2351.062
607.393	2377.150
607.521	2392.150
607.649	2349.963
607.777	2369.500
607.905	2367.312
608.033	2380.550
608.162	2383.762
608.290	2397.863
608.418	2417.700
608.546	2398.412
608.674	2432.537
608.802	2406.562
608.930	2423.575
609.058	2406.625
609.187	2420.725
609.315	2431.025
609.443	2425.238
609.571	2439.425
609.699	2418.525
609.827	2428.512
609.955	2452.375
610.083	2428.437
610.212	2436.662
610.340	2451.363
610.468	2454.700
610.596	2467.113
610.724	2464.875
610.852	2462.300
610.980	2452.575
611.108	2476.025
611.237	2470.988
611.365	2468.187
611.493	2467.575
611.621	2502.225
611.749	2493.525
611.877	2511.588
612.005	2514.012
612.133	2503.463
612.262	2498.975
612.390	2520.600
612.518	2521.912
612.646	2556.150
612.774	2537.050
612.902	2518.312
613.030	2552.250
613.158	2597.475
613.287	2570.787
613.415	2574.312
613.543	2574.387
613.671	2574.562
613.799	2604.600
613.927	2591.100
614.055	2603.613
614.183	2681.850
614.312	2601.562
614.440	2678.512
614.568	2639.488
614.696	2645.387
614.824	2753.637
614.952	2672.537
615.080	2643.012
615.208	2696.412
615.337	2677.425
615.465	2683.275
615.593	2713.475
615.721	2765.825
615.849	2736.613
615.977	2752.125
616.105	2790.412
616.233	2747.488
616.362	2835.800
616.490	2758.887
616.618	2771.125
616.746	2817.925
616.874	2876.500
617.002	2814.312
617.130	2872.863
617.258	2983.262
617.387	2859.250
617.515	2823.012
617.643	2879.037
617.771	2914.550
617.899	2925.238
618.027	2853.412
618.155	3004.275
618.283	2891.550
618.412	2927.975
618.540	3015.463
618.668	2970.887
618.796	2958.900
618.924	3082.325
619.052	2958.613
619.180	2938.863
619.308	2998.225
619.437	2992.338
619.565	2990.787
619.693	2967.137
619.821	3012.425
619.949	2997.900
620.077	3068.062
620.205	3074.425
620.333	3057.162
620.462	3091.588
620.590	3132.875
620.718	3053.088
620.846	3198.387
620.974	3168.437
621.102	3092.537
621.230	3073.312
621.358	3206.213
621.487	3091.387
621.615	3110.350
621.743	3126.875
621.871	3121.200
621.999	3215.300
622.127	3150.775
622.255	3168.775
622.383	3155.550
622.512	3162.050
622.640	3326.713
622.768	3118.762
622.896	3166.625
623.024	3161.650
623.152	3274.488
623.280	3243.863
623.408	3161.162
623.537	3209.562
623.665	3177.713
623.793	3226.850
623.921	3197.912
624.049	3186.900
624.177	3189.812
624.305	3251.025
624.433	3245.900
624.562	3235.687
624.690	3262.838
624.818	3302.900
624.946	3441.062
625.074	3271.838
625.202	3232.075
625.330	3240.450
625.458	3316.588
625.587	3267.137
625.715	3358.012
625.843	3421.200
625.971	3296.187
626.099	3284.838
626.227	3288.150
626.355	3261.000
626.483	3411.050
626.612	3292.950
626.740	3268.250
626.868	3376.437
626.996	3307.713
627.124	3322.437
627.252	3303.800
627.380	3360.900
627.508	3330.937
627.637	3320.213
627.765	3374.250
627.893	3371.187
628.021	3362.575
628.149	3407.012
628.277	3408.537
628.405	3463.738
628.533	3355.662
628.662	3444.437
628.790	3407.225
628.918	3408.050
629.046	3425.975
629.174	3441.238
629.302	3543.125
629.430	3417.525
629.558	3465.312
629.687	3485.488
629.815	3463.562
629.943	3520.238
630.071	3524.150
630.199	3525.350
630.327	3541.562
630.455	3505.950
630.583	3637.875
630.712	3572.775
630.840	3577.512
630.968	3614.950
631.096	3550.937
631.224	3566.600
631.352	3599.375
631.480	3638.850
631.608	3618.700
631.737	3705.250
631.865	3811.963
631.993	3621.213
632.121	3752.250
632.249	3763.588
632.377	3726.963
632.505	3720.275
632.633	3641.375
632.762	3741.400
632.890	3813.338
633.018	3689.863
633.146	3759.600
633.274	3765.925
633.402	3742.900
633.530	3714.088
633.658	3900.812
633.787	3720.338
633.915	3843.463
634.043	3749.250
634.171	3753.575
634.299	3816.637
634.427	3891.125
634.555	3832.512
634.683	3785.275
634.812	3796.713
634.940	3792.250
635.068	3743.463
635.196	3789.275
635.324	3782.312
635.452	3883.912
635.580	3793.937
635.708	3778.238
635.837	3830.512
635.965	3801.800
636.093	3810.950
636.221	3782.675
636.349	3885.588
636.477	3747.650
636.605	3943.988
636.733	3733.850
636.862	3757.875
636.990	3802.537
637.118	3850.787
637.246	3815.963
637.374	3788.950
637.502	3781.437
637.630	3723.137
637.758	3790.275
637.887	3734.375
638.015	3748.900
638.143	3742.250
638.271	3761.700
638.399	3736.312
638.527	3712.262
638.655	3696.325
638.783	3873.537
638.912	3759.088
639.040	3753.325
639.168	3775.887
639.296	3721.200
639.424	3846.750
639.552	3708.437
639.680	3739.088
639.808	3760.600
639.937	3680.200
640.065	3692.363
640.193	3790.875
640.321	3684.625
640.449	3752.650
640.577	3802.300
640.705	3732.075
640.833	3831.650
640.962	3681.062
641.090	3685.075
641.218	3656.762
641.346	3707.912
641.474	3730.713
641.602	3675.488
641.730	3694.200
641.858	3685.613
641.987	3713.912
642.115	3679.937
642.243	3737.537
642.371	3704.725
642.499	3685.900
642.627	3728.637
642.755	3781.838
642.883	3776.338
643.012	3725.463
643.140	3680.613
643.268	3720.850
643.396	3729.387
643.524	3849.400
643.652	3711.700
643.780	3708.463
643.908	3724.550
644.037	3866.725
644.165	3699.000
644.293	3718.375
644.421	3693.775
644.549	3795.600
644.677	3707.950
644.805	3749.713
644.933	3686.175
645.062	3724.062
645.190	3734.238
645.318	3784.525
645.446	3724.575
645.574	3739.900
645.702	3702.050
645.830	3891.850
645.958	3681.262
646.087	3892.012
646.215	3699.863
646.343	3878.113
646.471	3756.738
646.599	3767.437
646.727	3697.812
646.855	3728.812
646.983	3751.963
647.112	3689.425
647.240	3832.575
647.368	3723.700
647.496	3781.825
647.624	3656.425
647.752	3684.625
647.880	3671.425
648.008	3674.750
648.137	3656.262
648.265	3638.950
648.393	3636.900
648.521	3649.400
648.649	3667.537
648.777	3667.937
648.905	3609.162
649.033	3652.600
649.162	3648.575
649.290	3612.025
649.418	3691.600
649.546	3653.675
649.674	3689.787
649.802	3610.275
649.930	3745.137
650.058	3531.562
650.187	3584.062
650.315	3540.300
650.443	3621.488
650.571	3540.125
650.699	3524.437
650.827	3496.512
650.955	3549.338
651.083	3526.050
651.212	3583.500
651.340	3573.838
651.468	3509.213
651.596	3485.925
651.724	3447.437
651.852	3469.375
651.980	3440.238
652.108	3557.900
652.237	3489.675
652.365	3542.912
652.493	3392.025
652.621	3410.238
652.749	3474.012
652.877	3381.238
653.005	3410.350
653.133	3354.550
653.262	3436.387
653.390	3335.500
653.518	3474.238
653.646	3356.650
653.774	3539.537
653.902	3389.912
654.030	3286.137
654.158	3314.787
654.287	3308.150
654.415	3318.988
654.543	3320.312
654.671	3362.350
654.799	3284.238
654.927	3243.250
655.055	3234.562
655.183	3269.800
655.312	3246.400
655.440	3247.062
655.568	3213.175
655.696	3291.000
655.824	3305.725
655.952	3195.650
656.080	3146.750
656.208	3338.050
656.337	3171.100
656.465	3180.012
656.593	3217.600
656.721	3154.300
656.849	3198.312
656.977	3138.300
657.105	3138.550
657.233	3074.912
657.362	3090.900
657.490	3063.900
657.618	3076.838
657.746	3068.425
657.874	3035.738
658.002	3019.238
658.130	3066.350
658.258	3001.225
658.387	3042.713
658.515	2983.550
658.643	3043.075
658.771	2987.650
658.899	2992.387
659.027	2989.937
659.155	2973.325
659.283	3165.225
659.412	2965.213
659.540	3048.312
659.668	2920.900
659.796	2946.500
659.924	3003.137
660.052	2904.912
660.180	2936.675
660.308	2928.387
660.437	2892.012
660.565	2877.338
660.693	2869.175
660.821	2870.137
660.949	2863.450
661.077	2836.675
661.205	2864.162
661.333	2810.950
661.462	2931.950
661.590	2867.025
661.718	2976.637
661.846	2887.437
661.974	2936.525
662.102	2808.437
662.230	2819.412
662.358	2783.238
662.487	2786.375
662.615	2763.150
662.743	2742.463
662.871	2754.825
662.999	2731.725
663.127	2713.900
663.255	2801.687
663.383	2787.650
663.512	2697.812
663.640	2726.863
663.768	2677.100
663.896	2692.150
664.024	2716.512
664.152	2688.250
664.280	2710.912
664.408	2671.675
664.537	2722.675
664.665	2636.062
664.793	2591.937
664.921	2624.437
665.049	2626.088
665.177	2635.675
665.305	2616.363
665.433	2611.863
665.562	2591.425
665.690	2610.325
665.818	2685.012
665.946	2601.137
666.074	2566.850
666.202	2571.213
666.330	2573.988
666.458	2555.850
666.587	2529.325
666.715	2539.338
666.843	2518.812
666.971	2513.375
667.099	2533.600
667.227	2525.113
667.355	2517.738
667.483	2494.238
667.612	2503.425
667.740	2495.262
667.868	2528.250
667.996	2480.262
668.124	2472.012
668.252	2468.187
668.380	2451.100
668.508	2463.912
668.637	2455.275
668.765	2435.375
668.893	2463.075
669.021	2434.338
669.149	2427.800
669.277	2429.162
669.405	2410.562
669.533	2417.213
669.662	2459.550
669.790	2379.125
669.918	2408.675
670.046	2367.963
670.174	2413.113
670.302	2390.975
670.430	2363.800
670.558	2353.812
670.687	2356.575
670.815	2342.412
670.943	2325.113
671.071	2314.750
671.199	2323.175
671.327	2310.150
671.455	2308.200
671.583	2285.525
671.712	2297.200
671.840	2271.825
671.968	2261.488
672.096	2248.738
672.224	2257.300
672.352	2261.950
672.480	2239.475
672.608	2225.412
672.737	2236.613
672.865	2217.937
672.993	2184.437
673.121	2191.738
673.249	2189.300
673.377	2167.088
673.505	2173.400
673.633	2135.400
673.762	2148.525
673.890	2159.363
674.018	2169.300
674.146	2118.687
674.274	2138.762
674.402	2127.588
674.530	2119.525
674.658	2111.425
674.787	2064.488
674.915	2056.937
675.043	2078.463
675.171	2079.662
675.299	2054.287
675.427	2040.350
675.555	2034.763
675.683	2032.250
675.812	2012.325
675.940	2002.775
676.068	2026.912
676.196	1996.138
676.324	1980.500
676.452	1969.475
676.580	1963.275
676.708	1958.437
676.837	1991.800
676.965	1940.562
677.093	1939.362
677.221	1935.000
677.349	1918.388
677.477	1903.213
677.605	1887.475
677.733	1922.062
677.862	1889.475
677.990	1885.213
678.118	1881.162
678.246	1866.463
678.374	1842.625
678.502	1833.812
678.630	1824.737
678.758	1830.125
678.887	1817.875
679.015	1830.287
679.143	1804.100
679.271	1796.450
679.399	1797.200
679.527	1776.812
679.655	1764.888
679.783	1763.062
679.912	1774.987
680.040	1769.275
680.168	1754.588
680.296	1743.625
680.424	1749.062
680.552	1735.150
680.680	1735.100
680.808	1717.187
680.937	1726.687
681.065	1718.687
681.193	1693.125
681.321	1714.062
681.449	1705.350
681.577	1680.588
681.705	1673.287
681.833	1661.463
681.962	1640.975
682.090	1666.537
682.218	1657.400
682.346	1645.850
682.474	1635.562
682.602	1654.187
682.730	1623.175
682.858	1605.900
682.987	1628.588
683.115	1606.412
683.243	1601.513
683.371	1599.713
683.499	1591.963
683.627	1613.725
683.755	1584.200
683.883	1578.700
684.012	1572.187
684.140	1570.275
684.268	1549.025
684.396	1565.838
684.524	1556.187
684.652	1559.838
684.780	1544.475
684.908	1546.562
685.037	1537.950
685.165	1536.912
685.293	1523.700
685.421	1520.437
685.549	1492.638
685.677	1521.000
685.805	1498.237
685.933	1510.162
686.062	1473.537
686.190	1511.300
686.318	1488.150
686.446	1489.237
686.574	1470.825
686.702	1484.225
686.830	1468.475
686.958	1472.187
687.087	1458.537
687.215	1439.963
687.343	1450.000
687.471	1452.888
687.599	1424.437
687.727	1427.213
687.855	1441.062
687.983	1428.575
688.112	1431.400
688.240	1411.625
688.368	1418.225
688.496	1407.375
688.624	1412.225
688.752	1393.925
688.880	1407.900
689.008	1386.588
689.137	1384.950
689.265	1386.437
689.393	1377.037
689.521	1381.812
689.649	1362.287
689.777	1371.162
689.905	1356.225
690.033	1357.237
690.162	1348.075
690.290	1329.000
690.418	1332.350
690.546	1362.263
690.674	1341.112
690.802	1323.263
690.930	1327.225
691.058	1318.625
691.187	1296.525
691.315	1321.287
691.443	1305.250
691.571	1282.100
691.699	1286.662
691.827	1290.600
691.955	1285.687
692.083	1266.950
692.212	1270.150
692.340	1278.037
692.468	1267.875
692.596	1258.138
692.724	1251.662
692.852	1237.625
692.980	1247.513
693.108	1234.888
693.237	1234.088
693.365	1225.575
693.493	1215.325
693.621	1203.638
693.749	1202.213
693.877	1200.525
694.005	1189.700
694.133	1198.187
694.262	1188.500
694.390	1178.475
694.518	1162.575
694.646	1157.750
694.774	1171.237
694.902	1169.088
695.030	1185.263
695.158	1150.700
695.287	1143.937
695.415	1148.513
695.543	1149.775
695.671	1128.463
695.799	1125.237
695.927	1123.662
696.055	1115.700
696.183	1135.100
696.312	1108.725
696.440	1100.475
696.568	1102.187
696.696	1086.287
696.824	1087.350
696.952	1085.175
697.080	1076.888
697.208	1086.400
697.337	1063.513
697.465	1065.287
697.593	1058.412
697.721	1063.150
697.849	1054.050
697.977	1050.775
698.105	1045.025
698.233	1046.975
698.362	1031.638
698.490	1025.838
698.618	1024.638
698.746	1019.612
698.874	1030.725
699.002	1023.125
699.130	1004.850
699.258	1011.300
699.387	992.413
699.515	990.163
699.643	1010.950
699.771	994.237
699.899	983.587
700.027	982.812
700.155	978.500
700.283	977.925
700.412	974.737
700.540	958.575
700.668	955.462
700.796	967.737
700.924	950.788
701.052	952.237
701.180	947.987
701.308	951.825
701.437	925.212
701.565	934.875
701.693	928.288
701.821	946.300
701.949	942.312
702.077	909.125
702.205	919.312
702.333	907.800
702.462	904.812
702.590	907.475
702.718	905.575
702.846	894.975
702.974	901.275
703.102	892.763
703.230	898.275
703.358	879.062
703.487	872.612
703.615	882.000
703.743	860.375
703.871	868.812
703.999	851.013
704.127	852.562
704.255	850.175
704.383	855.562
704.512	827.925
704.640	838.263
704.768	831.663
704.896	834.000
705.024	832.913
705.152	828.250
705.280	823.550
705.408	823.250
705.537	813.025
705.665	811.562
705.793	805.362
705.921	798.062
706.049	814.562
706.177	795.837
706.305	795.538
706.433	786.425
706.562	788.638
706.690	784.675
706.818	777.700
706.946	777.975
707.074	778.475
707.202	765.325
707.330	764.275
707.458	764.550
707.587	757.862
707.715	761.975
707.843	748.612
707.971	753.062
708.099	749.950
708.227	737.100
708.355	734.263
708.483	735.587
708.612	737.900
708.740	734.025
708.868	719.087
708.996	732.125
709.124	731.687
709.252	718.312
709.380	718.462
709.508	705.987
709.637	713.962
709.765	702.462
709.893	704.038
710.021	704.837
710.149	692.888
710.277	703.712
710.405	697.600
710.533	679.100
710.662	681.050
710.790	686.138
710.918	682.138
711.046	671.288
711.174	673.400
711.302	669.237
711.430	669.937
711.558	679.062
711.687	668.075
711.815	661.725
711.943	668.400
712.071	656.013
712.199	663.587
712.327	652.163
712.455	643.663
712.583	646.500
712.712	663.163
712.840	639.200
712.968	636.138
713.096	638.413
713.224	634.000
713.352	636.600
713.480	620.513
713.608	628.050
713.737	622.663
713.865	622.638
713.993	611.812
714.121	611.663
714.249	621.237
714.377	607.525
714.505	616.937
714.633	599.875
714.762	600.475
714.890	605.300
715.018	605.975
715.146	587.362
715.274	594.212
715.402	587.250
715.530	589.312
715.658	588.600
715.787	585.425
715.915	585.450
716.043	579.775
716.171	586.375
716.299	592.663
716.427	572.462
716.555	577.812
716.683	577.025
716.812	565.225
716.940	571.975
717.068	557.525
717.196	557.687
717.324	561.687
717.452	553.775
717.580	555.250
717.708	551.250
717.837	560.337
717.965	557.962
718.093	545.700
718.221	542.300
718.349	541.375
718.477	542.937
718.605	533.288
718.733	539.950
718.862	530.475
718.990	533.700
719.118	533.837
719.246	531.975
719.374	529.038
719.502	534.725
719.630	528.913
719.758	517.263
719.887	511.050
720.015	528.025
720.143	511.025
720.271	514.050
720.399	513.788
720.527	520.212
720.655	499.837
720.783	511.500
720.912	516.925
721.040	509.087
721.168	504.225
721.296	514.325
721.424	495.500
721.552	492.288
721.680	491.587
721.808	493.025
721.937	500.400
722.065	479.637
722.193	480.462
722.321	489.262
722.449	479.675
722.577	482.387
722.705	471.625
722.833	479.187
722.962	487.163
723.090	467.538
723.218	470.050
723.346	468.800
723.474	467.150
723.602	468.788
723.730	465.000
723.858	464.950
723.987	465.962
724.115	457.387
724.243	464.538
724.371	453.262
724.499	464.675
724.627	450.675
724.755	459.363
724.883	451.387
725.012	439.650
725.140	443.062
725.268	442.913
725.396	441.550
725.524	434.950
725.652	444.137
725.780	439.500
725.908	435.600
726.037	429.262
726.165	427.288
726.293	423.225
726.421	424.600
726.549	428.788
726.677	412.925
726.805	422.400
726.933	424.988
727.062	416.988
727.190	415.800
727.318	414.262
727.446	418.875
727.574	415.700
727.702	411.462
727.830	410.425
727.958	417.825
728.087	405.050
728.215	400.812
728.343	399.475
728.471	405.038
728.599	398.413
728.727	401.887
728.855	402.650
728.983	396.212
729.112	392.962
729.240	399.275
729.368	392.137
729.496	394.712
729.624	389.900
729.752	391.550
729.880	389.000
730.008	387.275
730.137	377.300
730.265	383.087
730.393	378.087
730.521	376.738
730.649	384.187
730.777	377.150
730.905	375.725
731.033	378.750
731.162	375.712
731.290	375.238
731.418	367.587
731.546	387.800
731.674	372.863
731.802	365.038
731.930	368.925
732.058	369.562
732.187	364.875
732.315	362.600
732.443	366.275
732.571	354.475
732.699	357.712
732.827	355.887
732.955	355.413
733.083	346.437
733.212	351.187
733.340	353.988
733.468	350.550
733.596	349.675
733.724	342.137
733.852	351.250
733.980	345.962
734.108	346.137
734.237	351.587
734.365	331.800
734.493	349.587
734.621	339.512
734.749	343.775
734.877	337.650
735.005	337.075
735.133	339.837
735.262	332.238
735.390	333.738
735.518	338.725
735.646	332.163
735.774	330.238
735.902	329.425
736.030	330.812
736.158	336.050
736.287	324.187
736.415	327.988
736.543	327.025
736.671	320.137
736.799	325.750
736.927	330.650
737.055	321.375
737.183	318.988
737.312	321.800
