sample14_PS_at_750.00nm_cut_at_1008.00Y_01.dat
15.05.2023
12:32:15
cut middle at Y: 1008.00
top cursor: 1048 down cursor: 968 mean of: 80 lines , 2560 datapoints
wavelength(nm)	intensity[arb. units]
585.996	1881.250
586.124	1849.075
586.252	1805.763
586.380	1814.138
586.508	1820.500
586.637	1829.338
586.765	1823.437
586.893	1825.400
587.021	1834.513
587.149	1834.662
587.277	1839.213
587.405	1834.850
587.533	1821.513
587.662	1830.925
587.790	1840.388
587.918	1846.325
588.046	1831.862
588.174	1850.588
588.302	1834.500
588.430	1833.612
588.558	1837.425
588.687	1848.775
588.815	1877.250
588.943	1843.338
589.071	1840.850
589.199	1863.175
589.327	1839.900
589.455	1813.263
589.583	1852.838
589.712	1845.475
589.840	1841.075
589.968	1822.425
590.096	1852.338
590.224	1842.888
590.352	1834.900
590.480	1831.963
590.608	1842.412
590.737	1819.025
590.865	1839.763
590.993	1831.200
591.121	1835.850
591.249	1834.775
591.377	1830.412
591.505	1836.812
591.633	1825.338
591.762	1854.725
591.890	1845.537
592.018	1828.263
592.146	1829.763
592.274	1857.900
592.402	1837.725
592.530	1843.700
592.658	1850.150
592.787	1841.600
592.915	1838.250
593.043	1849.088
593.171	1841.550
593.299	1862.400
593.427	1849.050
593.555	1849.925
593.683	1838.263
593.812	1855.312
593.940	1860.237
594.068	1863.888
594.196	1890.975
594.324	1855.612
594.452	1876.838
594.580	1893.000
594.708	1861.225
594.837	1887.713
594.965	1898.625
595.093	1901.312
595.221	1892.862
595.349	1908.638
595.477	1893.800
595.605	1888.375
595.733	1939.338
595.862	1922.975
595.990	1909.463
596.118	1920.825
596.246	1924.900
596.374	1948.338
596.502	1956.700
596.630	1932.763
596.758	1948.787
596.887	1957.400
597.015	1958.487
597.143	1928.925
597.271	1948.475
597.399	1969.088
597.527	1965.125
597.655	1952.537
597.783	1970.775
597.912	1954.275
598.040	1977.500
598.168	1948.225
598.296	1953.250
598.424	1947.675
598.552	1953.287
598.680	1948.825
598.808	1945.088
598.937	1956.263
599.065	1969.625
599.193	1952.475
599.321	1923.650
599.449	1955.825
599.577	1937.075
599.705	1944.388
599.833	1944.687
599.962	1933.612
600.090	1934.450
600.218	1926.737
600.346	1940.312
600.474	1951.750
600.602	1950.987
600.730	1943.787
600.858	1946.162
600.987	1949.925
601.115	1942.875
601.243	1927.850
601.371	1950.200
601.499	1966.200
601.627	1950.850
601.755	1965.412
601.883	1962.050
602.012	1978.875
602.140	1960.412
602.268	1980.350
602.396	1987.275
602.524	1998.162
602.652	1995.450
602.780	1991.175
602.908	2003.300
603.037	1997.588
603.165	2020.162
603.293	2033.550
603.421	2041.575
603.549	2037.125
603.677	2066.613
603.805	2038.437
603.933	2062.925
604.062	2056.363
604.190	2083.162
604.318	2074.575
604.446	2103.037
604.574	2103.575
604.702	2104.100
604.830	2089.213
604.958	2132.650
605.087	2147.525
605.215	2124.100
605.343	2148.588
605.471	2145.875
605.599	2161.562
605.727	2157.925
605.855	2173.600
605.983	2156.850
606.112	2165.937
606.240	2185.037
606.368	2195.363
606.496	2239.613
606.624	2190.850
606.752	2208.475
606.880	2236.937
607.008	2253.750
607.137	2248.325
607.265	2231.512
607.393	2249.475
607.521	2247.925
607.649	2227.250
607.777	2233.937
607.905	2241.225
608.033	2254.725
608.162	2249.713
608.290	2260.863
608.418	2259.600
608.546	2273.537
608.674	2262.937
608.802	2240.838
608.930	2267.988
609.058	2251.850
609.187	2256.863
609.315	2261.412
609.443	2248.787
609.571	2265.213
609.699	2267.937
609.827	2254.137
609.955	2276.550
610.083	2259.062
610.212	2261.312
610.340	2271.863
610.468	2266.500
610.596	2281.713
610.724	2266.850
610.852	2274.725
610.980	2263.137
611.108	2290.838
611.237	2273.963
611.365	2279.887
611.493	2277.062
611.621	2288.700
611.749	2291.075
611.877	2294.175
612.005	2283.300
612.133	2297.375
612.262	2282.262
612.390	2294.162
612.518	2307.387
612.646	2321.825
612.774	2300.375
612.902	2306.000
613.030	2313.775
613.158	2334.412
613.287	2351.287
613.415	2329.437
613.543	2337.637
613.671	2340.375
613.799	2354.588
613.927	2352.600
614.055	2345.037
614.183	2412.850
614.312	2350.812
614.440	2384.787
614.568	2370.488
614.696	2386.475
614.824	2428.125
614.952	2398.713
615.080	2410.613
615.208	2428.950
615.337	2426.287
615.465	2439.562
615.593	2450.950
615.721	2459.275
615.849	2489.162
615.977	2459.662
616.105	2474.262
616.233	2482.825
616.362	2498.838
616.490	2480.100
616.618	2480.812
616.746	2496.000
616.874	2531.037
617.002	2520.912
617.130	2551.213
617.258	2587.775
617.387	2533.100
617.515	2536.162
617.643	2543.825
617.771	2564.787
617.899	2570.975
618.027	2548.238
618.155	2591.925
618.283	2560.600
618.412	2573.262
618.540	2623.425
618.668	2590.238
618.796	2586.738
618.924	2636.000
619.052	2614.125
619.180	2591.137
619.308	2607.425
619.437	2619.162
619.565	2607.488
619.693	2611.100
619.821	2614.463
619.949	2616.463
620.077	2638.137
620.205	2651.488
620.333	2656.725
620.462	2661.175
620.590	2693.988
620.718	2645.825
620.846	2689.525
620.974	2712.550
621.102	2674.387
621.230	2669.937
621.358	2734.300
621.487	2660.213
621.615	2687.238
621.743	2695.425
621.871	2695.475
621.999	2718.863
622.127	2690.137
622.255	2700.900
622.383	2698.238
622.512	2700.412
622.640	2792.088
622.768	2677.488
622.896	2698.625
623.024	2685.775
623.152	2762.963
623.280	2750.950
623.408	2680.400
623.537	2718.488
623.665	2707.375
623.793	2739.488
623.921	2724.113
624.049	2711.687
624.177	2727.875
624.305	2734.225
624.433	2747.812
624.562	2750.500
624.690	2763.812
624.818	2768.750
624.946	2854.250
625.074	2765.750
625.202	2755.700
625.330	2745.963
625.458	2787.325
625.587	2762.950
625.715	2786.225
625.843	2834.262
625.971	2765.162
626.099	2768.175
626.227	2781.425
626.355	2763.963
626.483	2825.600
626.612	2742.900
626.740	2736.300
626.868	2809.525
626.996	2764.963
627.124	2791.775
627.252	2748.400
627.380	2798.738
627.508	2789.588
627.637	2781.037
627.765	2806.850
627.893	2800.562
628.021	2790.775
628.149	2821.000
628.277	2842.412
628.405	2902.825
628.533	2797.213
628.662	2861.062
628.790	2827.262
628.918	2827.675
629.046	2844.213
629.174	2832.963
629.302	2949.037
629.430	2839.037
629.558	2880.437
629.687	2878.525
629.815	2872.400
629.943	2916.875
630.071	2940.037
630.199	2919.213
630.327	2944.488
630.455	2881.637
630.583	3005.787
630.712	2982.187
630.840	2961.088
630.968	2992.800
631.096	2943.863
631.224	2949.713
631.352	2950.887
631.480	2997.350
631.608	2977.338
631.737	3105.100
631.865	3197.250
631.993	2993.525
632.121	3145.312
632.249	3100.875
632.377	3089.150
632.505	3099.300
632.633	3006.713
632.762	3098.887
632.890	3214.950
633.018	3035.887
633.146	3084.113
633.274	3123.700
633.402	3076.988
633.530	3063.012
633.658	3254.863
633.787	3050.512
633.915	3173.187
634.043	3109.738
634.171	3098.238
634.299	3158.250
634.427	3226.650
634.555	3183.312
634.683	3134.312
634.812	3129.900
634.940	3151.537
635.068	3086.613
635.196	3160.687
635.324	3159.838
635.452	3248.000
635.580	3141.062
635.708	3143.150
635.837	3212.937
635.965	3186.312
636.093	3172.550
636.221	3157.963
636.349	3264.825
636.477	3120.075
636.605	3360.500
636.733	3122.175
636.862	3137.162
636.990	3166.738
637.118	3249.025
637.246	3188.550
637.374	3165.025
637.502	3154.312
637.630	3121.600
637.758	3150.287
637.887	3134.562
638.015	3143.588
638.143	3148.512
638.271	3136.113
638.399	3153.775
638.527	3139.262
638.655	3097.200
638.783	3293.812
638.912	3181.225
639.040	3160.525
639.168	3158.838
639.296	3119.687
639.424	3295.925
639.552	3117.475
639.680	3152.537
639.808	3173.900
639.937	3110.588
640.065	3133.425
640.193	3257.338
640.321	3122.625
640.449	3212.213
640.577	3279.900
640.705	3144.925
640.833	3298.613
640.962	3128.488
641.090	3133.787
641.218	3114.550
641.346	3165.863
641.474	3194.100
641.602	3157.075
641.730	3156.200
641.858	3150.713
641.987	3222.562
642.115	3148.137
642.243	3221.187
642.371	3197.375
642.499	3193.488
642.627	3203.988
642.755	3275.738
642.883	3290.300
643.012	3219.125
643.140	3180.800
643.268	3246.450
643.396	3237.775
643.524	3384.400
643.652	3206.787
643.780	3228.887
643.908	3237.412
644.037	3371.050
644.165	3228.488
644.293	3236.562
644.421	3220.600
644.549	3324.900
644.677	3238.662
644.805	3304.863
644.933	3234.900
645.062	3279.750
645.190	3273.437
645.318	3379.875
645.446	3303.025
645.574	3316.475
645.702	3254.213
645.830	3500.575
645.958	3275.150
646.087	3500.162
646.215	3284.875
646.343	3504.400
646.471	3390.050
646.599	3368.750
646.727	3315.838
646.855	3322.275
646.983	3364.812
647.112	3294.488
647.240	3512.463
647.368	3358.812
647.496	3421.187
647.624	3285.463
647.752	3304.975
647.880	3343.675
648.008	3344.100
648.137	3322.350
648.265	3320.800
648.393	3342.287
648.521	3357.113
648.649	3343.787
648.777	3352.488
648.905	3304.350
649.033	3362.400
649.162	3369.825
649.290	3323.625
649.418	3401.738
649.546	3378.787
649.674	3414.863
649.802	3342.613
649.930	3528.062
650.058	3301.050
650.187	3374.312
650.315	3299.562
650.443	3403.450
650.571	3335.700
650.699	3300.613
650.827	3304.162
650.955	3336.725
651.083	3332.287
651.212	3384.000
651.340	3418.425
651.468	3348.988
651.596	3330.275
651.724	3290.800
651.852	3336.975
651.980	3275.363
652.108	3400.275
652.237	3328.300
652.365	3412.725
652.493	3262.088
652.621	3296.162
652.749	3385.250
652.877	3254.000
653.005	3326.238
653.133	3265.550
653.262	3335.713
653.390	3254.787
653.518	3417.350
653.646	3282.775
653.774	3473.912
653.902	3335.338
654.030	3251.000
654.158	3278.975
654.287	3265.287
654.415	3312.512
654.543	3280.437
654.671	3352.550
654.799	3277.412
654.927	3267.200
655.055	3241.113
655.183	3293.713
655.312	3259.475
655.440	3288.338
655.568	3244.863
655.696	3345.050
655.824	3378.950
655.952	3259.738
656.080	3224.700
656.208	3410.662
656.337	3267.912
656.465	3269.713
656.593	3309.050
656.721	3269.238
656.849	3326.000
656.977	3263.463
657.105	3255.175
657.233	3209.125
657.362	3226.387
657.490	3227.912
657.618	3214.363
657.746	3210.500
657.874	3208.287
658.002	3164.287
658.130	3232.450
658.258	3177.175
658.387	3203.825
658.515	3179.975
658.643	3250.775
658.771	3190.812
658.899	3216.912
659.027	3216.338
659.155	3216.662
659.283	3381.463
659.412	3214.425
659.540	3305.662
659.668	3168.162
659.796	3219.787
659.924	3274.012
660.052	3170.300
660.180	3215.000
660.308	3201.900
660.437	3199.863
660.565	3176.937
660.693	3167.537
660.821	3156.425
660.949	3164.875
661.077	3157.238
661.205	3182.400
661.333	3110.287
661.462	3272.475
661.590	3209.762
661.718	3345.650
661.846	3259.375
661.974	3357.125
662.102	3176.113
662.230	3193.975
662.358	3163.162
662.487	3162.213
662.615	3135.588
662.743	3098.050
662.871	3129.912
662.999	3117.213
663.127	3119.162
663.255	3249.425
663.383	3243.350
663.512	3114.325
663.640	3143.125
663.768	3124.262
663.896	3158.000
664.024	3183.375
664.152	3104.113
664.280	3156.150
664.408	3140.312
664.537	3186.012
664.665	3052.012
664.793	3047.750
664.921	3089.275
665.049	3109.275
665.177	3098.613
665.305	3096.912
665.433	3084.588
665.562	3056.687
665.690	3109.863
665.818	3276.325
665.946	3123.775
666.074	3074.213
666.202	3068.375
666.330	3135.425
666.458	3093.088
666.587	3033.675
666.715	3046.675
666.843	3027.925
666.971	3015.150
667.099	3096.387
667.227	3049.463
667.355	3084.650
667.483	3039.250
667.612	3068.075
667.740	3086.875
667.868	3135.950
667.996	3078.200
668.124	3044.750
668.252	3054.425
668.380	2999.437
668.508	3047.963
668.637	3047.363
668.765	3012.162
668.893	3076.600
669.021	3013.387
669.149	3094.363
669.277	3083.725
669.405	2997.187
669.533	3011.400
669.662	3278.363
669.790	3016.250
669.918	3115.113
670.046	3003.125
670.174	3116.713
670.302	3062.600
670.430	3024.800
670.558	3093.062
670.687	2995.825
670.815	3168.387
670.943	2952.025
671.071	2979.975
671.199	3017.750
671.327	2966.425
671.455	2993.988
671.583	2980.025
671.712	3111.025
671.840	2957.338
671.968	2938.375
672.096	2955.250
672.224	2953.250
672.352	3146.988
672.480	2945.425
672.608	2924.025
672.737	2892.088
672.865	3108.963
672.993	2945.262
673.121	2871.113
673.249	2921.700
673.377	2873.113
673.505	2874.662
673.633	2889.350
673.762	2852.387
673.890	2868.875
674.018	3074.162
674.146	2870.450
674.274	2880.000
674.402	3039.988
674.530	2862.900
674.658	2852.338
674.787	2801.350
674.915	2793.887
675.043	2872.088
675.171	2880.838
675.299	2813.437
675.427	2850.500
675.555	2798.775
675.683	2813.900
675.812	2795.562
675.940	2804.662
676.068	2813.975
676.196	2786.937
676.324	2781.450
676.452	2802.912
676.580	2777.125
676.708	2803.450
676.837	2824.162
676.965	2739.537
677.093	2759.050
677.221	2742.900
677.349	2770.550
677.477	2817.062
677.605	2740.113
677.733	2790.812
677.862	2710.937
677.990	2702.213
678.118	2698.100
678.246	2723.275
678.374	2687.637
678.502	2678.537
678.630	2663.687
678.758	2660.400
678.887	2669.887
679.015	2678.725
679.143	2656.000
679.271	2651.725
679.399	2659.900
679.527	2656.350
679.655	2624.562
679.783	2655.412
679.912	2636.988
680.040	2633.162
680.168	2622.213
680.296	2634.787
680.424	2636.762
680.552	2615.700
680.680	2630.975
680.808	2603.225
680.937	2586.850
681.065	2603.162
681.193	2585.550
681.321	2613.863
681.449	2596.200
681.577	2569.075
681.705	2583.975
681.833	2572.550
681.962	2553.875
682.090	2633.075
682.218	2560.463
682.346	2534.037
682.474	2564.450
682.602	2558.525
682.730	2552.988
682.858	2534.812
682.987	2556.075
683.115	2518.162
683.243	2516.088
683.371	2515.525
683.499	2523.350
683.627	2550.825
683.755	2533.113
683.883	2546.637
684.012	2518.162
684.140	2493.338
684.268	2511.700
684.396	2520.025
684.524	2502.500
684.652	2523.400
684.780	2513.488
684.908	2494.187
685.037	2489.412
685.165	2487.450
685.293	2492.850
685.421	2490.863
685.549	2459.588
685.677	2474.387
685.805	2494.750
685.933	2477.387
686.062	2430.887
686.190	2453.037
686.318	2498.875
686.446	2462.075
686.574	2448.262
686.702	2475.637
686.830	2453.650
686.958	2444.713
687.087	2428.437
687.215	2438.963
687.343	2420.062
687.471	2435.525
687.599	2420.787
687.727	2441.262
687.855	2433.375
687.983	2435.988
688.112	2442.350
688.240	2389.300
688.368	2385.275
688.496	2418.113
688.624	2431.187
688.752	2379.088
688.880	2384.637
689.008	2382.863
689.137	2388.412
689.265	2370.662
689.393	2366.937
689.521	2364.075
689.649	2387.988
689.777	2373.050
689.905	2367.637
690.033	2356.387
690.162	2353.937
690.290	2341.925
690.418	2332.912
690.546	2374.988
690.674	2373.200
690.802	2321.850
690.930	2330.662
691.058	2319.850
691.187	2299.450
691.315	2326.750
691.443	2334.887
691.571	2292.625
691.699	2283.387
691.827	2307.675
691.955	2288.250
692.083	2274.262
692.212	2297.387
692.340	2260.825
692.468	2272.825
692.596	2262.937
692.724	2292.425
692.852	2254.238
692.980	2254.575
693.108	2248.338
693.237	2229.950
693.365	2221.125
693.493	2209.450
693.621	2201.675
693.749	2210.912
693.877	2194.062
694.005	2200.800
694.133	2213.187
694.262	2193.475
694.390	2169.650
694.518	2159.200
694.646	2164.625
694.774	2153.637
694.902	2172.437
695.030	2184.975
695.158	2137.225
695.287	2143.475
695.415	2123.738
695.543	2137.125
695.671	2126.437
695.799	2110.762
695.927	2119.575
696.055	2092.988
696.183	2125.675
696.312	2102.675
696.440	2104.475
696.568	2086.613
696.696	2090.787
696.824	2083.662
696.952	2080.363
697.080	2051.937
697.208	2067.575
697.337	2044.075
697.465	2042.287
697.593	2040.912
697.721	2038.437
697.849	2021.600
697.977	2013.013
698.105	2027.638
698.233	2012.125
698.362	2003.925
698.490	2023.325
698.618	1996.088
698.746	1998.737
698.874	1999.175
699.002	2003.638
699.130	1988.250
699.258	1977.013
699.387	1949.513
699.515	1960.912
699.643	1983.987
699.771	1962.487
699.899	1952.037
700.027	1948.275
700.155	1956.775
700.283	1941.700
700.412	1918.838
700.540	1924.737
700.668	1920.937
700.796	1916.425
700.924	1900.200
701.052	1898.650
701.180	1906.425
701.308	1890.987
701.437	1888.775
701.565	1882.350
701.693	1886.888
701.821	1897.263
701.949	1880.200
702.077	1851.812
702.205	1865.537
702.333	1863.937
702.462	1853.275
702.590	1848.013
702.718	1860.500
702.846	1848.162
702.974	1844.750
703.102	1830.700
703.230	1826.575
703.358	1800.588
703.487	1799.612
703.615	1819.725
703.743	1792.350
703.871	1797.237
703.999	1785.513
704.127	1791.650
704.255	1770.138
704.383	1781.025
704.512	1766.375
704.640	1769.550
704.768	1747.763
704.896	1748.187
705.024	1746.975
705.152	1723.138
705.280	1733.787
705.408	1719.475
705.537	1731.112
705.665	1716.775
705.793	1706.037
705.921	1716.575
706.049	1728.138
706.177	1710.425
706.305	1691.900
706.433	1705.463
706.562	1682.888
706.690	1678.812
706.818	1668.987
706.946	1665.662
707.074	1662.638
707.202	1642.162
707.330	1644.412
707.458	1654.375
707.587	1645.963
707.715	1644.737
707.843	1639.200
707.971	1644.388
708.099	1627.050
708.227	1620.925
708.355	1614.325
708.483	1608.625
708.612	1611.312
708.740	1604.912
708.868	1589.725
708.996	1602.062
709.124	1609.350
709.252	1577.800
709.380	1577.388
709.508	1559.700
709.637	1560.900
709.765	1563.487
709.893	1553.362
710.021	1562.937
710.149	1536.013
710.277	1565.950
710.405	1550.537
710.533	1544.900
710.662	1538.487
710.790	1543.800
710.918	1519.550
711.046	1512.388
711.174	1523.400
711.302	1500.275
711.430	1497.388
711.558	1514.500
711.687	1506.025
711.815	1505.588
711.943	1510.600
712.071	1495.713
712.199	1493.912
712.327	1502.112
712.455	1481.000
712.583	1472.325
712.712	1495.650
712.840	1475.325
712.968	1464.075
713.096	1468.638
713.224	1450.513
713.352	1467.000
713.480	1435.350
713.608	1454.750
713.737	1446.088
713.865	1440.187
713.993	1426.112
714.121	1421.900
714.249	1430.412
714.377	1436.338
714.505	1427.275
714.633	1416.463
714.762	1415.362
714.890	1421.825
715.018	1406.925
715.146	1397.037
715.274	1386.513
715.402	1385.713
715.530	1401.838
715.658	1380.687
715.787	1383.338
715.915	1381.425
716.043	1368.150
716.171	1381.675
716.299	1404.575
716.427	1378.025
716.555	1371.225
716.683	1356.287
716.812	1351.225
716.940	1362.437
717.068	1324.588
717.196	1338.675
717.324	1335.325
717.452	1345.725
717.580	1334.350
717.708	1332.162
717.837	1331.575
717.965	1326.213
718.093	1313.800
718.221	1304.513
718.349	1311.812
718.477	1314.150
718.605	1300.725
718.733	1303.850
718.862	1289.800
718.990	1286.125
719.118	1290.263
719.246	1302.125
719.374	1296.725
719.502	1308.362
719.630	1284.750
719.758	1285.500
719.887	1264.375
720.015	1278.737
720.143	1268.187
720.271	1265.425
720.399	1267.437
720.527	1260.200
720.655	1249.888
720.783	1251.987
720.912	1249.388
721.040	1254.388
721.168	1239.975
721.296	1238.475
721.424	1233.088
721.552	1249.250
721.680	1226.662
721.808	1232.338
721.937	1233.300
722.065	1209.950
722.193	1200.487
722.321	1223.925
722.449	1202.338
722.577	1204.325
722.705	1193.525
722.833	1188.662
722.962	1200.487
723.090	1177.638
723.218	1182.787
723.346	1189.125
723.474	1187.700
723.602	1184.912
723.730	1173.013
723.858	1179.237
723.987	1176.362
724.115	1167.425
724.243	1157.300
724.371	1147.638
724.499	1159.062
724.627	1163.275
724.755	1151.875
724.883	1163.937
725.012	1142.925
725.140	1139.162
725.268	1146.112
725.396	1137.437
725.524	1125.650
725.652	1136.075
725.780	1125.600
725.908	1110.987
726.037	1121.650
726.165	1108.963
726.293	1095.763
726.421	1105.437
726.549	1104.500
726.677	1099.525
726.805	1103.350
726.933	1093.513
727.062	1083.400
727.190	1074.425
727.318	1094.138
727.446	1088.700
727.574	1100.500
727.702	1086.088
727.830	1069.525
727.958	1074.287
728.087	1065.075
728.215	1050.237
728.343	1058.750
728.471	1061.425
728.599	1044.350
728.727	1048.013
728.855	1057.162
728.983	1047.412
729.112	1044.287
729.240	1042.937
729.368	1041.275
729.496	1036.013
729.624	1048.675
729.752	1025.437
729.880	1022.175
730.008	1023.150
730.137	1015.350
730.265	1023.062
730.393	1017.125
730.521	1010.650
730.649	1011.013
730.777	1017.350
730.905	999.950
731.033	999.013
731.162	992.650
731.290	1003.200
731.418	996.400
731.546	1017.975
731.674	985.337
731.802	988.200
731.930	983.650
732.058	980.925
732.187	978.875
732.315	978.525
732.443	989.350
732.571	973.550
732.699	973.087
732.827	966.675
732.955	956.788
733.083	949.600
733.212	965.275
733.340	960.000
733.468	958.450
733.596	960.288
733.724	956.400
733.852	951.175
733.980	940.513
734.108	943.325
734.237	958.737
734.365	939.925
734.493	949.500
734.621	940.388
734.749	945.550
734.877	930.850
735.005	926.625
735.133	940.687
735.262	926.538
