sample11_PP_at_750.00nm_cut_at_1008.00Y_01.dat
15.05.2023
11:08:49
cut middle at Y: 1008.00
top cursor: 1048 down cursor: 968 mean of: 80 lines , 2560 datapoints
wavelength(nm)	intensity[arb. units]
585.996	1060.050
586.124	1035.225
586.252	1035.100
586.380	1039.875
586.508	1044.900
586.637	1046.287
586.765	1034.963
586.893	1044.350
587.021	1064.475
587.149	1063.725
587.277	1059.300
587.405	1059.175
587.533	1043.675
587.662	1064.800
587.790	1081.950
587.918	1072.963
588.046	1075.275
588.174	1060.675
588.302	1085.300
588.430	1081.588
588.558	1069.112
588.687	1068.937
588.815	1103.937
588.943	1084.475
589.071	1081.800
589.199	1085.275
589.327	1080.963
589.455	1075.125
589.583	1082.263
589.712	1097.362
589.840	1090.588
589.968	1084.513
590.096	1086.425
590.224	1089.100
590.352	1095.375
590.480	1078.150
590.608	1093.325
590.737	1103.838
590.865	1116.525
590.993	1108.388
591.121	1105.200
591.249	1112.037
591.377	1098.463
591.505	1114.175
591.633	1105.312
591.762	1118.200
591.890	1129.100
592.018	1108.838
592.146	1122.612
592.274	1130.925
592.402	1115.950
592.530	1126.925
592.658	1142.612
592.787	1132.750
592.915	1137.700
593.043	1134.400
593.171	1137.250
593.299	1161.550
593.427	1158.362
593.555	1157.650
593.683	1156.287
593.812	1155.713
593.940	1164.900
594.068	1163.275
594.196	1201.463
594.324	1164.162
594.452	1185.850
594.580	1185.287
594.708	1177.050
594.837	1194.425
594.965	1195.950
595.093	1202.150
595.221	1206.650
595.349	1212.650
595.477	1214.825
595.605	1211.963
595.733	1247.725
595.862	1234.662
595.990	1219.275
596.118	1232.075
596.246	1237.025
596.374	1256.463
596.502	1255.075
596.630	1246.650
596.758	1254.325
596.887	1262.450
597.015	1284.263
597.143	1235.362
597.271	1263.763
597.399	1275.400
597.527	1270.187
597.655	1266.838
597.783	1286.150
597.912	1277.062
598.040	1289.187
598.168	1288.763
598.296	1278.888
598.424	1278.200
598.552	1292.800
598.680	1279.013
598.808	1280.787
598.937	1290.400
599.065	1299.888
599.193	1294.112
599.321	1278.588
599.449	1307.088
599.577	1289.700
599.705	1290.888
599.833	1306.612
599.962	1286.888
600.090	1301.987
600.218	1305.888
600.346	1308.888
600.474	1316.487
600.602	1317.687
600.730	1329.838
600.858	1330.562
600.987	1321.200
601.115	1336.812
601.243	1320.362
601.371	1336.450
601.499	1338.700
601.627	1338.412
601.755	1359.825
601.883	1354.213
602.012	1365.825
602.140	1357.200
602.268	1371.287
602.396	1365.025
602.524	1366.925
602.652	1377.687
602.780	1373.513
602.908	1389.650
603.037	1386.588
603.165	1413.912
603.293	1426.787
603.421	1437.450
603.549	1412.175
603.677	1447.312
603.805	1430.000
603.933	1439.550
604.062	1448.638
604.190	1460.125
604.318	1451.650
604.446	1474.275
604.574	1466.525
604.702	1473.825
604.830	1486.775
604.958	1504.300
605.087	1507.500
605.215	1502.400
605.343	1516.025
605.471	1520.638
605.599	1534.075
605.727	1533.987
605.855	1553.900
605.983	1541.138
606.112	1564.725
606.240	1563.175
606.368	1573.100
606.496	1569.200
606.624	1571.237
606.752	1588.687
606.880	1581.575
607.008	1592.575
607.137	1608.150
607.265	1593.175
607.393	1613.300
607.521	1621.450
607.649	1603.763
607.777	1614.787
607.905	1605.925
608.033	1622.787
608.162	1637.850
608.290	1620.737
608.418	1648.525
608.546	1640.013
608.674	1668.975
608.802	1647.138
608.930	1656.388
609.058	1662.525
609.187	1658.750
609.315	1659.112
609.443	1678.812
609.571	1675.200
609.699	1682.850
609.827	1679.900
609.955	1686.125
610.083	1676.100
610.212	1692.800
610.340	1698.687
610.468	1688.537
610.596	1705.487
610.724	1699.550
610.852	1716.500
610.980	1712.375
611.108	1721.612
611.237	1718.125
611.365	1737.312
611.493	1737.237
611.621	1733.513
611.749	1749.362
611.877	1768.150
612.005	1765.687
612.133	1762.487
612.262	1753.475
612.390	1774.950
612.518	1789.588
612.646	1783.763
612.774	1793.800
612.902	1812.687
613.030	1810.687
613.158	1816.675
613.287	1832.912
613.415	1836.838
613.543	1844.062
613.671	1834.713
613.799	1860.725
613.927	1849.787
614.055	1868.825
614.183	1890.237
614.312	1883.575
614.440	1880.787
614.568	1915.725
614.696	1919.537
614.824	1913.625
614.952	1916.537
615.080	1946.475
615.208	1950.050
615.337	1952.675
615.465	1962.700
615.593	1987.375
615.721	2008.925
615.849	1998.713
615.977	2005.862
616.105	2006.088
616.233	2017.725
616.362	2037.737
616.490	2015.575
616.618	2047.975
616.746	2048.437
616.874	2087.412
617.002	2081.262
617.130	2104.162
617.258	2086.100
617.387	2108.963
617.515	2117.988
617.643	2119.150
617.771	2133.887
617.899	2145.500
618.027	2139.287
618.155	2156.287
618.283	2145.200
618.412	2166.825
618.540	2182.937
618.668	2189.350
618.796	2183.113
618.924	2214.963
619.052	2210.300
619.180	2210.537
619.308	2232.912
619.437	2228.613
619.565	2226.488
619.693	2226.963
619.821	2246.725
619.949	2241.625
620.077	2259.963
620.205	2258.450
620.333	2263.950
620.462	2294.062
620.590	2307.687
620.718	2295.050
620.846	2317.338
620.974	2351.463
621.102	2324.075
621.230	2332.262
621.358	2365.863
621.487	2337.687
621.615	2354.800
621.743	2399.950
621.871	2365.075
621.999	2384.787
622.127	2377.125
622.255	2385.650
622.383	2415.875
622.512	2421.150
622.640	2444.175
622.768	2425.537
622.896	2429.463
623.024	2413.900
623.152	2492.488
623.280	2454.850
623.408	2454.562
623.537	2465.537
623.665	2478.588
623.793	2499.812
623.921	2484.250
624.049	2493.150
624.177	2521.075
624.305	2542.375
624.433	2557.900
624.562	2562.500
624.690	2561.325
624.818	2591.100
624.946	2663.037
625.074	2594.887
625.202	2589.025
625.330	2585.100
625.458	2634.525
625.587	2633.187
625.715	2634.425
625.843	2692.162
625.971	2653.650
626.099	2651.738
626.227	2684.700
626.355	2657.875
626.483	2735.800
626.612	2673.075
626.740	2675.725
626.868	2732.100
626.996	2705.325
627.124	2716.262
627.252	2694.387
627.380	2755.650
627.508	2747.463
627.637	2746.050
627.765	2764.825
627.893	2787.000
628.021	2788.250
628.149	2798.312
628.277	2829.000
628.405	2894.412
628.533	2795.450
628.662	2878.050
628.790	2850.037
628.918	2854.550
629.046	2869.325
629.174	2887.162
629.302	3006.275
629.430	2922.500
629.558	2917.812
629.687	2948.713
629.815	2983.437
629.943	3009.925
630.071	3035.300
630.199	3026.525
630.327	3064.700
630.455	3023.950
630.583	3114.787
630.712	3081.887
630.840	3108.625
630.968	3147.338
631.096	3100.213
631.224	3136.200
631.352	3138.750
631.480	3179.075
631.608	3161.238
631.737	3291.225
631.865	3377.037
631.993	3210.175
632.121	3345.225
632.249	3332.312
632.377	3326.475
632.505	3346.838
632.633	3268.500
632.762	3357.437
632.890	3441.675
633.018	3340.012
633.146	3417.738
633.274	3403.613
633.402	3407.900
633.530	3388.275
633.658	3572.787
633.787	3425.075
633.915	3491.738
634.043	3452.562
634.171	3474.875
634.299	3519.213
634.427	3597.550
634.555	3546.525
634.683	3521.738
634.812	3533.050
634.940	3569.350
635.068	3538.762
635.196	3585.287
635.324	3606.512
635.452	3680.787
635.580	3600.838
635.708	3612.088
635.837	3683.037
635.965	3658.400
636.093	3659.400
636.221	3655.250
636.349	3750.425
636.477	3671.475
636.605	3830.475
636.733	3640.588
636.862	3691.912
636.990	3713.437
637.118	3790.588
637.246	3765.988
637.374	3722.050
637.502	3748.500
637.630	3735.600
637.758	3760.850
637.887	3750.875
638.015	3767.925
638.143	3799.113
638.271	3800.600
638.399	3795.363
638.527	3802.250
638.655	3805.650
638.783	3964.887
638.912	3879.537
639.040	3865.500
639.168	3906.588
639.296	3885.000
639.424	4022.125
639.552	3908.350
639.680	3967.562
639.808	3935.925
639.937	3949.900
640.065	3940.575
640.193	4073.713
640.321	3980.950
640.449	4051.300
640.577	4127.212
640.705	4055.725
640.833	4174.512
640.962	4052.213
641.090	4058.075
641.218	4062.437
641.346	4135.725
641.474	4184.275
641.602	4141.825
641.730	4158.937
641.858	4177.175
641.987	4223.163
642.115	4193.562
642.243	4268.750
642.371	4257.288
642.499	4253.450
642.627	4329.462
642.755	4386.950
642.883	4397.988
643.012	4334.087
643.140	4335.775
643.268	4362.475
643.396	4398.600
643.524	4531.350
643.652	4459.812
643.780	4438.538
643.908	4478.300
644.037	4616.687
644.165	4512.400
644.293	4539.163
644.421	4512.562
644.549	4609.187
644.677	4567.962
644.805	4640.675
644.933	4587.625
645.062	4644.300
645.190	4683.925
645.318	4759.925
645.446	4697.887
645.574	4716.387
645.702	4707.087
645.830	4935.962
645.958	4748.475
646.087	4952.562
646.215	4774.262
646.343	4999.387
646.471	4882.600
646.599	4907.525
646.727	4874.250
646.855	4920.100
646.983	4956.538
647.112	4886.525
647.240	5113.137
647.368	4971.962
647.496	5039.687
647.624	4975.300
647.752	4984.100
647.880	5001.937
648.008	5019.962
648.137	5033.462
648.265	5047.288
648.393	5066.038
648.521	5113.437
648.649	5136.337
648.777	5126.450
648.905	5110.700
649.033	5137.712
649.162	5145.087
649.290	5163.762
649.418	5222.587
649.546	5233.788
649.674	5252.500
649.802	5218.625
649.930	5377.675
650.058	5215.113
650.187	5272.475
650.315	5237.225
650.443	5317.725
650.571	5274.250
650.699	5267.125
650.827	5279.887
650.955	5324.962
651.083	5322.962
651.212	5399.837
651.340	5411.637
651.468	5365.050
651.596	5382.288
651.724	5368.875
651.852	5392.512
651.980	5358.175
652.108	5488.562
652.237	5444.125
652.365	5529.350
652.493	5396.413
652.621	5410.462
652.749	5511.538
652.877	5410.250
653.005	5484.363
653.133	5472.300
653.262	5501.687
653.390	5483.225
653.518	5635.100
653.646	5510.387
653.774	5718.525
653.902	5557.887
654.030	5517.262
654.158	5567.163
654.287	5580.887
654.415	5598.775
654.543	5634.562
654.671	5659.450
654.799	5647.725
654.927	5591.337
655.055	5596.400
655.183	5652.113
655.312	5655.663
655.440	5671.475
655.568	5673.238
655.696	5768.663
655.824	5807.137
655.952	5710.625
656.080	5695.775
656.208	5891.225
656.337	5738.400
656.465	5806.762
656.593	5830.413
656.721	5775.012
656.849	5846.163
656.977	5804.000
657.105	5821.262
657.233	5785.913
657.362	5822.075
657.490	5831.450
657.618	5831.738
657.746	5840.375
657.874	5857.712
658.002	5863.800
658.130	5873.163
658.258	5880.163
658.387	5926.012
658.515	5889.613
658.643	5956.850
658.771	5918.550
658.899	5939.113
659.027	5943.788
659.155	5969.875
659.283	6169.275
659.412	5988.850
659.540	6087.887
659.668	5977.325
659.796	6049.300
659.924	6080.163
660.052	6026.913
660.180	6072.125
660.308	6050.812
660.437	6063.637
660.565	6087.400
660.693	6080.900
660.821	6062.512
660.949	6083.562
661.077	6075.925
661.205	6108.400
661.333	6107.913
661.462	6217.800
661.590	6186.975
661.718	6348.762
661.846	6274.050
661.974	6328.250
662.102	6196.375
662.230	6236.613
662.358	6188.150
662.487	6255.775
662.615	6199.538
662.743	6200.337
662.871	6223.625
662.999	6228.712
663.127	6215.775
663.255	6345.587
663.383	6358.337
663.512	6260.775
663.640	6302.613
663.768	6277.962
663.896	6297.025
664.024	6365.725
664.152	6351.850
664.280	6336.738
664.408	6344.387
664.537	6403.275
664.665	6292.900
664.793	6304.700
664.921	6351.525
665.049	6386.613
665.177	6381.200
665.305	6393.512
665.433	6395.113
665.562	6389.262
665.690	6445.887
665.818	6600.962
665.946	6462.687
666.074	6430.637
666.202	6415.488
666.330	6452.413
666.458	6480.887
666.587	6404.562
666.715	6428.788
666.843	6444.725
666.971	6430.650
667.099	6491.687
667.227	6475.125
667.355	6506.050
667.483	6475.288
667.612	6488.350
667.740	6521.150
667.868	6571.538
667.996	6533.175
668.124	6505.775
668.252	6503.325
668.380	6507.600
668.508	6502.825
668.637	6512.425
668.765	6520.462
668.893	6575.512
669.021	6492.975
669.149	6592.100
669.277	6570.325
669.405	6530.238
669.533	6542.975
669.662	6780.275
669.790	6540.087
669.918	6672.800
670.046	6532.363
670.174	6627.950
670.302	6618.650
670.430	6574.250
670.558	6602.150
670.687	6536.625
670.815	6714.587
670.943	6496.663
671.071	6526.900
671.199	6554.738
671.327	6510.050
671.455	6515.225
671.583	6508.625
671.712	6666.288
671.840	6548.038
671.968	6470.012
672.096	6497.187
672.224	6455.538
672.352	6654.837
672.480	6482.500
672.608	6431.038
672.737	6445.700
672.865	6582.538
672.993	6463.687
673.121	6405.738
673.249	6421.225
673.377	6385.538
673.505	6406.887
673.633	6397.187
673.762	6362.788
673.890	6384.875
674.018	6596.413
674.146	6386.375
674.274	6384.113
674.402	6569.562
674.530	6366.962
674.658	6356.113
674.787	6303.725
674.915	6284.663
675.043	6389.937
675.171	6347.975
675.299	6278.375
675.427	6311.700
675.555	6263.887
675.683	6249.363
675.812	6272.837
675.940	6276.425
676.068	6258.988
676.196	6234.000
676.324	6242.738
676.452	6234.062
676.580	6224.100
676.708	6246.025
676.837	6268.387
676.965	6162.337
677.093	6198.587
677.221	6152.250
677.349	6158.863
677.477	6211.887
677.605	6156.975
677.733	6178.150
677.862	6068.725
677.990	6045.625
678.118	6081.350
678.246	6066.587
678.374	6067.025
678.502	5993.738
678.630	5980.900
678.758	5956.812
678.887	5982.675
679.015	5971.050
679.143	5942.613
679.271	5910.137
679.399	5938.025
679.527	5939.437
679.655	5878.288
679.783	5934.788
679.912	5889.437
680.040	5863.913
680.168	5869.450
680.296	5879.000
680.424	5800.163
680.552	5842.225
680.680	5902.262
680.808	5826.700
680.937	5756.762
681.065	5751.212
681.193	5787.475
681.321	5764.262
681.449	5709.825
681.577	5721.062
681.705	5744.375
681.833	5680.175
681.962	5643.525
682.090	5823.837
682.218	5619.450
682.346	5613.212
682.474	5665.062
682.602	5604.500
682.730	5629.775
682.858	5571.038
682.987	5654.075
683.115	5602.900
683.243	5568.312
683.371	5525.775
683.499	5532.962
683.627	5580.137
683.755	5608.300
683.883	5662.625
684.012	5528.387
684.140	5494.275
684.268	5466.400
684.396	5493.475
684.524	5536.262
684.652	5532.225
684.780	5525.762
684.908	5532.587
685.037	5432.437
685.165	5388.187
685.293	5407.562
685.421	5490.712
685.549	5343.125
685.677	5367.187
685.805	5524.988
685.933	5364.762
686.062	5318.150
686.190	5324.937
686.318	5376.675
686.446	5301.200
686.574	5291.212
686.702	5389.062
686.830	5253.700
686.958	5242.163
687.087	5255.300
687.215	5247.437
687.343	5183.300
687.471	5212.750
687.599	5194.087
687.727	5361.488
687.855	5179.238
687.983	5173.200
688.112	5243.962
688.240	5106.712
688.368	5076.812
688.496	5135.687
688.624	5195.925
688.752	5020.750
688.880	5043.650
689.008	5036.625
689.137	5016.500
689.265	4969.988
689.393	4981.000
689.521	4958.113
689.649	4956.925
689.777	4928.100
689.905	4923.113
690.033	4924.462
690.162	4899.738
690.290	4891.075
690.418	4880.613
690.546	4886.575
690.674	4911.488
690.802	4799.675
690.930	4828.387
691.058	4798.113
691.187	4780.525
691.315	4727.725
691.443	4802.587
691.571	4693.625
691.699	4725.350
691.827	4762.863
691.955	4637.750
692.083	4642.163
692.212	4755.350
692.340	4603.450
692.468	4590.887
692.596	4606.100
692.724	4704.900
692.852	4546.512
692.980	4558.137
693.108	4501.988
693.237	4444.825
693.365	4460.400
693.493	4418.025
693.621	4424.625
693.749	4401.738
693.877	4370.525
694.005	4460.475
694.133	4340.863
694.262	4353.825
694.390	4282.175
694.518	4264.600
694.646	4250.200
694.774	4256.300
694.902	4353.725
695.030	4298.288
695.158	4186.512
695.287	4158.812
695.415	4133.825
695.543	4158.725
695.671	4186.275
695.799	4104.075
695.927	4072.475
696.055	4067.988
696.183	4057.713
696.312	4015.713
696.440	4189.587
696.568	4060.150
696.696	3985.162
696.824	3909.200
696.952	3917.312
697.080	3893.025
697.208	3854.975
697.337	3947.825
697.465	3864.312
697.593	3794.550
697.721	3789.287
697.849	3798.450
697.977	3794.012
698.105	3780.000
698.233	3717.713
698.362	3725.400
698.490	3685.988
698.618	3684.075
698.746	3767.700
698.874	3663.450
699.002	3792.750
699.130	3615.550
699.258	3620.700
699.387	3575.213
699.515	3581.525
699.643	3535.550
699.771	3568.750
699.899	3497.512
700.027	3519.738
700.155	3462.662
700.283	3432.700
700.412	3466.037
700.540	3462.850
700.668	3459.762
700.796	3386.463
700.924	3380.225
701.052	3367.250
701.180	3486.088
701.308	3352.088
701.437	3284.200
701.565	3253.625
701.693	3257.287
701.821	3224.738
701.949	3231.937
702.077	3215.012
702.205	3176.713
702.333	3171.100
702.462	3143.825
702.590	3156.963
702.718	3121.238
702.846	3122.275
702.974	3062.262
703.102	3063.900
703.230	3182.238
703.358	3096.162
703.487	2994.262
703.615	3227.637
703.743	3012.488
703.871	2962.375
703.999	2991.213
704.127	3045.937
704.255	2871.300
704.383	3097.937
704.512	2917.088
704.640	2903.500
704.768	2826.750
704.896	2921.312
705.024	2823.512
705.152	2902.625
705.280	2808.062
705.408	2781.950
705.537	2750.575
705.665	2715.963
705.793	2731.525
705.921	2691.075
706.049	2719.100
706.177	2656.637
706.305	2659.700
706.433	2748.425
706.562	2637.738
706.690	2617.675
706.818	2586.850
706.946	2730.363
707.074	2583.762
707.202	2550.825
707.330	2588.750
707.458	2544.150
707.587	2519.800
707.715	2526.625
707.843	2526.312
707.971	2533.562
708.099	2527.613
708.227	2473.575
708.355	2471.125
708.483	2452.637
708.612	2450.275
708.740	2444.613
708.868	2424.075
708.996	2424.488
709.124	2396.713
709.252	2377.425
709.380	2366.575
709.508	2331.775
709.637	2333.012
709.765	2319.463
709.893	2305.600
710.021	2297.000
710.149	2293.412
710.277	2303.975
710.405	2274.562
710.533	2247.838
710.662	2228.625
710.790	2248.262
710.918	2210.287
711.046	2210.825
711.174	2208.225
711.302	2176.875
711.430	2159.863
711.558	2166.525
711.687	2146.187
711.815	2147.012
711.943	2139.187
712.071	2109.125
712.199	2109.287
712.327	2086.825
712.455	2069.025
712.583	2063.387
712.712	2088.512
712.840	2052.825
712.968	2020.987
713.096	2020.950
713.224	2001.350
713.352	1994.200
713.480	1964.550
713.608	1976.950
713.737	1940.725
713.865	1936.687
713.993	1917.412
714.121	1901.763
714.249	1908.625
714.377	1893.487
714.505	1900.175
714.633	1869.225
714.762	1847.037
714.890	1862.975
715.018	1844.963
715.146	1820.713
715.274	1815.838
715.402	1814.875
715.530	1809.812
715.658	1795.612
715.787	1784.838
715.915	1779.862
716.043	1760.275
716.171	1747.763
716.299	1772.463
716.427	1725.287
716.555	1726.400
716.683	1700.862
716.812	1695.588
716.940	1693.213
717.068	1665.575
717.196	1660.687
717.324	1645.213
717.452	1651.862
717.580	1629.537
717.708	1613.237
717.837	1635.537
717.965	1612.312
718.093	1596.725
718.221	1580.200
718.349	1575.925
718.477	1574.875
718.605	1548.912
718.733	1560.737
718.862	1546.088
718.990	1528.412
719.118	1522.825
719.246	1510.612
719.374	1499.338
719.502	1505.175
719.630	1496.187
719.758	1465.537
719.887	1460.187
720.015	1461.375
720.143	1444.362
720.271	1435.075
720.399	1430.575
720.527	1410.487
720.655	1400.375
720.783	1412.725
720.912	1391.787
721.040	1401.362
721.168	1370.963
721.296	1379.625
721.424	1369.525
721.552	1342.162
721.680	1337.713
721.808	1336.075
721.937	1327.787
722.065	1300.775
722.193	1289.138
722.321	1306.737
722.449	1285.138
722.577	1290.638
722.705	1269.525
722.833	1252.350
722.962	1261.838
723.090	1237.338
723.218	1233.275
723.346	1232.975
723.474	1223.775
723.602	1233.425
723.730	1209.513
723.858	1204.362
723.987	1213.950
724.115	1179.950
724.243	1178.550
724.371	1172.975
724.499	1165.625
724.627	1167.525
724.755	1147.075
724.883	1160.050
725.012	1136.650
725.140	1123.200
725.268	1120.263
725.396	1112.675
725.524	1112.838
725.652	1095.687
725.780	1096.037
725.908	1082.562
726.037	1084.825
726.165	1070.425
726.293	1052.900
726.421	1063.562
726.549	1045.638
726.677	1042.300
726.805	1026.912
726.933	1022.788
727.062	1007.175
727.190	1011.850
727.318	1004.788
727.446	1005.612
727.574	994.087
727.702	989.138
727.830	980.725
727.958	983.462
728.087	970.937
728.215	968.450
728.343	955.837
728.471	952.175
728.599	932.112
728.727	946.212
728.855	936.737
728.983	913.425
729.112	923.675
729.240	919.700
729.368	910.337
729.496	899.187
729.624	907.263
729.752	887.462
729.880	887.100
730.008	894.413
730.137	868.312
730.265	876.750
730.393	863.112
730.521	856.812
730.649	853.237
730.777	858.038
730.905	845.638
731.033	839.150
731.162	837.163
731.290	841.625
731.418	821.700
731.546	844.638
731.674	817.763
731.802	808.812
731.930	802.138
732.058	798.450
732.187	796.300
732.315	781.837
732.443	794.487
732.571	779.100
732.699	777.250
732.827	768.875
732.955	759.125
733.083	752.888
733.212	750.763
733.340	752.163
733.468	745.175
733.596	742.413
733.724	735.913
733.852	732.388
733.980	734.275
734.108	723.462
734.237	739.712
734.365	715.250
734.493	720.275
734.621	707.225
734.749	719.862
734.877	705.325
735.005	694.550
735.133	705.112
735.262	697.825
735.390	684.937
735.518	683.350
