sample10_PS_at_750.00nm_cut_at_1008.00Y_01.dat
15.05.2023
11:07:37
cut middle at Y: 1008.00
top cursor: 1048 down cursor: 968 mean of: 80 lines , 2560 datapoints
wavelength(nm)	intensity[arb. units]
585.996	1044.275
586.124	1023.850
586.252	1009.612
586.380	997.875
586.508	1019.962
586.637	1016.612
586.765	1008.700
586.893	1028.912
587.021	1015.975
587.149	1037.263
587.277	1028.525
587.405	1028.650
587.533	1014.775
587.662	1049.812
587.790	1050.787
587.918	1042.050
588.046	1053.287
588.174	1040.612
588.302	1046.263
588.430	1041.500
588.558	1054.000
588.687	1047.312
588.815	1066.650
588.943	1054.225
589.071	1045.375
589.199	1066.888
589.327	1063.013
589.455	1036.375
589.583	1059.662
589.712	1064.388
589.840	1065.100
589.968	1052.662
590.096	1077.400
590.224	1064.013
590.352	1076.900
590.480	1066.100
590.608	1070.575
590.737	1055.900
590.865	1076.375
590.993	1069.812
591.121	1074.600
591.249	1086.588
591.377	1071.963
591.505	1066.287
591.633	1067.550
591.762	1073.900
591.890	1085.575
592.018	1080.338
592.146	1089.687
592.274	1097.838
592.402	1084.638
592.530	1089.963
592.658	1086.850
592.787	1095.750
592.915	1089.037
593.043	1087.525
593.171	1105.725
593.299	1116.400
593.427	1095.625
593.555	1097.225
593.683	1108.050
593.812	1107.912
593.940	1113.200
594.068	1114.362
594.196	1147.013
594.324	1117.750
594.452	1133.025
594.580	1140.713
594.708	1134.925
594.837	1133.800
594.965	1145.287
595.093	1144.325
595.221	1145.338
595.349	1168.888
595.477	1161.812
595.605	1146.838
595.733	1179.100
595.862	1170.775
595.990	1169.638
596.118	1186.250
596.246	1178.700
596.374	1196.075
596.502	1205.213
596.630	1196.062
596.758	1200.800
596.887	1202.187
597.015	1217.925
597.143	1186.237
597.271	1191.175
597.399	1212.138
597.527	1224.787
597.655	1208.487
597.783	1227.513
597.912	1217.250
598.040	1219.338
598.168	1214.562
598.296	1225.400
598.424	1225.250
598.552	1223.400
598.680	1215.937
598.808	1213.787
598.937	1243.213
599.065	1229.600
599.193	1228.575
599.321	1225.437
599.449	1241.912
599.577	1230.862
599.705	1222.200
599.833	1242.300
599.962	1232.112
600.090	1234.287
600.218	1231.763
600.346	1232.338
600.474	1250.487
600.602	1246.987
600.730	1248.062
600.858	1248.550
600.987	1251.075
601.115	1251.888
601.243	1247.700
601.371	1261.513
601.499	1255.888
601.627	1268.350
601.755	1277.500
601.883	1274.850
602.012	1273.937
602.140	1262.362
602.268	1302.662
602.396	1281.138
602.524	1297.225
602.652	1300.338
602.780	1293.687
602.908	1316.725
603.037	1321.237
603.165	1320.812
603.293	1327.475
603.421	1348.375
603.549	1336.650
603.677	1371.562
603.805	1340.213
603.933	1350.588
604.062	1354.112
604.190	1378.812
604.318	1362.112
604.446	1390.300
604.574	1400.838
604.702	1393.175
604.830	1400.187
604.958	1414.675
605.087	1423.975
605.215	1423.375
605.343	1428.975
605.471	1435.700
605.599	1449.062
605.727	1439.850
605.855	1462.088
605.983	1444.875
606.112	1465.125
606.240	1475.950
606.368	1477.950
606.496	1484.062
606.624	1461.775
606.752	1480.787
606.880	1494.000
607.008	1497.888
607.137	1508.138
607.265	1504.400
607.393	1524.287
607.521	1518.925
607.649	1518.937
607.777	1505.487
607.905	1521.975
608.033	1526.575
608.162	1540.375
608.290	1532.513
608.418	1533.437
608.546	1534.987
608.674	1564.612
608.802	1531.225
608.930	1552.487
609.058	1547.075
609.187	1547.412
609.315	1553.888
609.443	1556.237
609.571	1563.562
609.699	1567.737
609.827	1568.825
609.955	1554.050
610.083	1570.687
610.212	1575.950
610.340	1583.525
610.468	1568.500
610.596	1594.662
610.724	1575.763
610.852	1597.900
610.980	1587.513
611.108	1595.925
611.237	1593.450
611.365	1605.187
611.493	1592.838
611.621	1617.487
611.749	1624.350
611.877	1630.000
612.005	1608.763
612.133	1629.000
612.262	1610.100
612.390	1641.162
612.518	1638.000
612.646	1628.437
612.774	1643.625
612.902	1640.112
613.030	1662.912
613.158	1666.213
613.287	1698.287
613.415	1671.013
613.543	1676.175
613.671	1678.737
613.799	1678.088
613.927	1687.350
614.055	1704.575
614.183	1704.775
614.312	1697.150
614.440	1712.375
614.568	1720.250
614.696	1734.700
614.824	1720.425
614.952	1724.225
615.080	1749.737
615.208	1756.662
615.337	1756.850
615.465	1763.675
615.593	1774.463
615.721	1778.062
615.849	1790.787
615.977	1808.112
616.105	1792.075
616.233	1813.862
616.362	1811.388
616.490	1815.138
616.618	1824.362
616.746	1835.875
616.874	1839.775
617.002	1864.500
617.130	1871.625
617.258	1849.062
617.387	1859.713
617.515	1865.050
617.643	1874.075
617.771	1877.662
617.899	1889.287
618.027	1883.737
618.155	1907.812
618.283	1895.737
618.412	1906.625
618.540	1903.575
618.668	1925.400
618.796	1918.388
618.924	1919.650
619.052	1929.850
619.180	1928.150
619.308	1940.825
619.437	1943.850
619.565	1940.325
619.693	1943.213
619.821	1967.537
619.949	1933.162
620.077	1941.588
620.205	1957.175
620.333	1979.937
620.462	1968.425
620.590	1988.600
620.718	1978.800
620.846	1982.713
620.974	2041.725
621.102	1977.088
621.230	1995.375
621.358	2017.525
621.487	1999.325
621.615	1998.737
621.743	2026.775
621.871	2015.362
621.999	2015.987
622.127	2009.075
622.255	2018.862
622.383	2027.562
622.512	2033.963
622.640	2017.237
622.768	2035.550
622.896	2021.250
623.024	2023.300
623.152	2058.650
623.280	2020.175
623.408	2046.950
623.537	2047.513
623.665	2057.287
623.793	2069.050
623.921	2054.375
624.049	2061.137
624.177	2068.887
624.305	2068.900
624.433	2075.350
624.562	2073.238
624.690	2068.412
624.818	2095.562
624.946	2096.162
625.074	2089.363
625.202	2120.412
625.330	2105.113
625.458	2103.725
625.587	2087.350
625.715	2096.975
625.843	2103.162
625.971	2097.812
626.099	2118.412
626.227	2126.550
626.355	2111.175
626.483	2126.650
626.612	2116.387
626.740	2117.825
626.868	2141.412
626.996	2137.762
627.124	2123.400
627.252	2117.687
627.380	2146.187
627.508	2145.750
627.637	2142.900
627.765	2166.988
627.893	2174.775
628.021	2142.900
628.149	2184.450
628.277	2206.488
628.405	2206.162
628.533	2163.400
628.662	2173.012
628.790	2185.762
628.918	2186.812
629.046	2190.325
629.174	2181.062
629.302	2227.925
629.430	2217.625
629.558	2208.375
629.687	2230.762
629.815	2226.375
629.943	2224.025
630.071	2240.725
630.199	2242.550
630.327	2234.125
630.455	2237.125
630.583	2274.537
630.712	2257.975
630.840	2257.250
630.968	2289.463
631.096	2278.100
631.224	2271.713
631.352	2273.812
631.480	2275.912
631.608	2288.838
631.737	2298.988
631.865	2334.400
631.993	2291.200
632.121	2317.637
632.249	2311.075
632.377	2331.100
632.505	2328.450
632.633	2307.062
632.762	2325.187
632.890	2358.900
633.018	2334.187
633.146	2336.900
633.274	2329.400
633.402	2336.238
633.530	2328.575
633.658	2378.662
633.787	2325.150
633.915	2360.662
634.043	2354.162
634.171	2357.900
634.299	2349.812
634.427	2378.488
634.555	2365.963
634.683	2355.863
634.812	2351.500
634.940	2372.525
635.068	2346.537
635.196	2377.725
635.324	2374.700
635.452	2386.225
635.580	2348.887
635.708	2342.387
635.837	2375.225
635.965	2363.300
636.093	2357.037
636.221	2344.262
636.349	2380.225
636.477	2332.387
636.605	2387.150
636.733	2334.937
636.862	2321.325
636.990	2337.738
637.118	2351.488
637.246	2332.800
637.374	2336.863
637.502	2321.488
637.630	2337.975
637.758	2333.575
637.887	2323.100
638.015	2315.275
638.143	2331.838
638.271	2303.950
638.399	2319.875
638.527	2312.262
638.655	2319.387
638.783	2353.175
638.912	2306.300
639.040	2309.450
639.168	2313.637
639.296	2323.512
639.424	2362.700
639.552	2317.287
639.680	2347.912
639.808	2316.175
639.937	2291.238
640.065	2307.037
640.193	2336.213
640.321	2304.213
640.449	2307.687
640.577	2324.175
640.705	2283.162
640.833	2324.375
640.962	2306.562
641.090	2308.500
641.218	2297.963
641.346	2304.850
641.474	2281.250
641.602	2292.500
641.730	2298.050
641.858	2297.000
641.987	2303.325
642.115	2309.450
642.243	2306.550
642.371	2331.700
642.499	2291.950
642.627	2308.725
642.755	2326.200
642.883	2322.250
643.012	2311.975
643.140	2315.988
643.268	2305.713
643.396	2313.588
643.524	2334.912
643.652	2311.725
643.780	2311.950
643.908	2320.238
644.037	2331.750
644.165	2315.687
644.293	2328.412
644.421	2304.225
644.549	2341.150
644.677	2337.525
644.805	2324.762
644.933	2320.275
645.062	2324.713
645.190	2314.338
645.318	2312.475
645.446	2331.575
645.574	2341.300
645.702	2312.275
645.830	2381.400
645.958	2325.713
646.087	2366.475
646.215	2308.725
646.343	2375.488
646.471	2355.488
646.599	2351.187
646.727	2318.012
646.855	2347.863
646.983	2347.475
647.112	2335.812
647.240	2371.525
647.368	2305.175
647.496	2329.950
647.624	2307.700
647.752	2316.937
647.880	2327.825
648.008	2332.450
648.137	2313.925
648.265	2287.500
648.393	2318.200
648.521	2318.275
648.649	2306.825
648.777	2303.400
648.905	2303.800
649.033	2280.675
649.162	2292.338
649.290	2294.338
649.418	2273.275
649.546	2282.838
649.674	2286.012
649.802	2289.463
649.930	2293.325
650.058	2267.100
650.187	2282.650
650.315	2285.375
650.443	2265.950
650.571	2281.475
650.699	2275.588
650.827	2274.838
650.955	2252.525
651.083	2255.200
651.212	2242.375
651.340	2250.562
651.468	2254.238
651.596	2227.625
651.724	2230.650
651.852	2224.187
651.980	2199.387
652.108	2247.488
652.237	2193.887
652.365	2202.162
652.493	2199.475
652.621	2195.437
652.749	2211.162
652.877	2191.800
653.005	2198.000
653.133	2209.825
653.262	2184.738
653.390	2197.175
653.518	2189.625
653.646	2196.062
653.774	2204.625
653.902	2202.137
654.030	2182.287
654.158	2156.400
654.287	2173.300
654.415	2172.450
654.543	2164.037
654.671	2153.025
654.799	2145.187
654.927	2159.225
655.055	2140.325
655.183	2142.325
655.312	2132.062
655.440	2124.350
655.568	2138.387
655.696	2129.213
655.824	2134.975
655.952	2138.687
656.080	2124.600
656.208	2138.287
656.337	2102.850
656.465	2119.812
656.593	2124.500
656.721	2097.225
656.849	2111.162
656.977	2100.512
657.105	2096.525
657.233	2086.825
657.362	2086.400
657.490	2076.387
657.618	2086.450
657.746	2098.312
657.874	2076.725
658.002	2077.613
658.130	2063.200
658.258	2081.287
658.387	2074.975
658.515	2050.187
658.643	2062.363
658.771	2058.988
658.899	2064.738
659.027	2052.000
659.155	2070.000
659.283	2039.200
659.412	2030.150
659.540	2038.888
659.668	2055.975
659.796	2040.312
659.924	2052.075
660.052	2045.862
660.180	2039.162
660.308	2038.338
660.437	2014.162
660.565	2031.550
660.693	2019.600
660.821	2028.850
660.949	2026.138
661.077	2009.838
661.205	2006.325
661.333	1995.500
661.462	2024.338
661.590	2013.263
661.718	1988.287
661.846	1997.575
661.974	2005.612
662.102	1994.225
662.230	1982.675
662.358	1979.975
662.487	1992.987
662.615	1958.937
662.743	1985.588
662.871	1968.213
662.999	1957.225
663.127	1953.263
663.255	1966.987
663.383	1970.850
663.512	1963.300
663.640	1968.275
663.768	1964.713
663.896	1969.562
664.024	1946.237
664.152	1961.838
664.280	1960.400
664.408	1935.975
664.537	1953.475
664.665	1939.362
664.793	1920.987
664.921	1935.662
665.049	1931.075
665.177	1949.687
665.305	1929.375
665.433	1923.350
665.562	1925.763
665.690	1919.325
665.818	1925.312
665.946	1927.713
666.074	1913.737
666.202	1920.487
666.330	1913.025
666.458	1901.600
666.587	1895.775
666.715	1897.513
666.843	1922.500
666.971	1906.437
667.099	1897.375
667.227	1923.250
667.355	1881.612
667.483	1897.437
667.612	1916.737
667.740	1890.787
667.868	1917.025
667.996	1891.650
668.124	1890.600
668.252	1884.050
668.380	1865.737
668.508	1895.987
668.637	1881.662
668.765	1882.475
668.893	1891.588
669.021	1880.612
669.149	1879.338
669.277	1851.025
669.405	1866.575
669.533	1881.963
669.662	1882.213
669.790	1858.150
669.918	1861.537
670.046	1871.037
670.174	1852.700
670.302	1853.963
670.430	1835.500
670.558	1848.388
670.687	1837.025
670.815	1837.662
670.943	1827.838
671.071	1830.312
671.199	1846.437
671.327	1837.125
671.455	1824.812
671.583	1821.412
671.712	1829.412
671.840	1814.162
671.968	1818.950
672.096	1808.162
672.224	1808.150
672.352	1791.888
672.480	1788.037
672.608	1786.375
672.737	1807.338
672.865	1779.550
672.993	1782.800
673.121	1792.425
673.249	1774.050
673.377	1768.025
673.505	1772.275
673.633	1747.300
673.762	1750.787
673.890	1772.225
674.018	1758.650
674.146	1753.650
674.274	1758.075
674.402	1735.825
674.530	1751.275
674.658	1741.138
674.787	1732.350
674.915	1716.150
675.043	1744.638
675.171	1733.612
675.299	1726.450
675.427	1714.013
675.555	1729.437
675.683	1723.112
675.812	1698.862
675.940	1705.250
676.068	1704.713
676.196	1699.525
676.324	1698.400
676.452	1693.638
676.580	1674.075
676.708	1691.412
676.837	1708.600
676.965	1676.562
677.093	1692.725
677.221	1670.713
677.349	1658.763
677.477	1668.950
677.605	1647.950
677.733	1667.713
677.862	1658.950
677.990	1646.950
678.118	1636.912
678.246	1627.088
678.374	1616.187
678.502	1630.638
678.630	1612.925
678.758	1610.487
678.887	1614.175
679.015	1634.513
679.143	1598.537
679.271	1598.812
679.399	1612.750
679.527	1586.312
679.655	1590.737
679.783	1607.237
679.912	1597.275
680.040	1598.075
680.168	1595.400
680.296	1582.150
680.424	1584.963
680.552	1580.675
680.680	1592.662
680.808	1568.800
680.937	1572.562
681.065	1571.763
681.193	1558.075
681.321	1576.000
681.449	1563.912
681.577	1561.287
681.705	1542.675
681.833	1536.925
681.962	1544.150
682.090	1542.812
682.218	1535.737
682.346	1537.062
682.474	1547.187
682.602	1547.075
682.730	1536.513
682.858	1523.875
682.987	1533.713
683.115	1523.838
683.243	1528.838
683.371	1526.250
683.499	1506.662
683.627	1530.325
683.755	1497.525
683.883	1505.425
684.012	1506.437
684.140	1504.612
684.268	1495.263
684.396	1510.138
684.524	1507.900
684.652	1513.250
684.780	1513.362
684.908	1509.412
685.037	1489.500
685.165	1503.525
685.293	1503.487
685.421	1492.425
685.549	1491.350
685.677	1488.312
685.805	1489.388
685.933	1482.763
686.062	1472.162
686.190	1488.650
686.318	1484.775
686.446	1485.463
686.574	1472.437
686.702	1486.650
686.830	1485.950
686.958	1459.950
687.087	1475.537
687.215	1457.500
687.343	1460.125
687.471	1465.225
687.599	1443.375
687.727	1459.187
687.855	1466.175
687.983	1470.575
688.112	1471.875
688.240	1455.963
688.368	1459.263
688.496	1451.638
688.624	1459.100
688.752	1442.437
688.880	1453.362
689.008	1446.650
689.137	1432.162
689.265	1451.737
689.393	1431.687
689.521	1433.350
689.649	1425.175
689.777	1424.850
689.905	1432.037
690.033	1435.638
690.162	1426.162
690.290	1408.237
690.418	1413.862
690.546	1436.162
690.674	1445.213
690.802	1402.338
690.930	1410.200
691.058	1409.800
691.187	1390.812
691.315	1407.150
691.443	1397.388
691.571	1392.338
691.699	1391.388
691.827	1406.287
691.955	1399.662
692.083	1383.725
692.212	1384.425
692.340	1393.437
692.468	1383.487
692.596	1376.937
692.724	1387.162
692.852	1376.763
692.980	1386.300
693.108	1374.075
693.237	1360.850
693.365	1363.062
693.493	1346.850
693.621	1340.425
693.749	1352.013
693.877	1341.425
694.005	1332.175
694.133	1344.675
694.262	1324.412
694.390	1328.250
694.518	1310.088
694.646	1320.037
694.774	1327.562
694.902	1318.775
695.030	1334.975
695.158	1303.537
695.287	1304.275
695.415	1295.537
695.543	1297.425
695.671	1291.963
695.799	1287.687
695.927	1286.213
696.055	1281.525
696.183	1306.912
696.312	1286.350
696.440	1278.838
696.568	1276.800
696.696	1268.412
696.824	1262.088
696.952	1262.088
697.080	1266.562
697.208	1276.013
697.337	1240.588
697.465	1246.112
697.593	1248.200
697.721	1240.412
697.849	1244.463
697.977	1234.612
698.105	1250.437
698.233	1237.388
698.362	1231.275
698.490	1216.800
698.618	1229.400
698.746	1224.875
698.874	1226.975
699.002	1219.800
699.130	1215.925
699.258	1210.825
699.387	1194.487
699.515	1205.713
699.643	1209.513
699.771	1208.862
699.899	1192.175
700.027	1195.250
700.155	1189.287
700.283	1195.300
700.412	1188.588
700.540	1181.575
700.668	1169.575
700.796	1182.075
700.924	1171.850
701.052	1168.662
701.180	1169.800
701.308	1163.412
701.437	1155.300
701.565	1154.062
701.693	1148.950
701.821	1163.575
701.949	1166.937
702.077	1136.100
702.205	1145.650
702.333	1141.100
702.462	1136.037
702.590	1127.862
702.718	1139.213
702.846	1120.600
702.974	1133.025
703.102	1116.900
703.230	1112.500
703.358	1107.750
703.487	1120.900
703.615	1119.187
703.743	1102.300
703.871	1103.600
703.999	1099.763
704.127	1090.875
704.255	1080.487
704.383	1094.312
704.512	1072.450
704.640	1075.650
704.768	1064.562
704.896	1070.112
705.024	1067.513
705.152	1065.700
705.280	1069.250
705.408	1062.338
705.537	1056.713
705.665	1059.588
705.793	1043.037
705.921	1034.975
706.049	1050.575
706.177	1038.300
706.305	1031.425
706.433	1031.375
706.562	1025.412
706.690	1024.450
706.818	1012.937
706.946	1015.462
707.074	1012.400
707.202	1002.288
707.330	1010.650
707.458	1008.025
707.587	992.875
707.715	996.850
707.843	996.100
707.971	992.025
708.099	993.675
708.227	982.888
708.355	985.125
708.483	984.475
708.612	975.575
708.740	970.812
708.868	968.000
708.996	971.575
709.124	975.775
709.252	970.475
709.380	957.562
709.508	947.562
709.637	958.663
709.765	951.375
709.893	951.337
710.021	952.325
710.149	938.937
710.277	955.187
710.405	936.362
710.533	931.725
710.662	928.325
710.790	941.200
710.918	917.013
711.046	912.450
711.174	920.700
711.302	915.425
711.430	917.962
711.558	923.425
711.687	906.575
711.815	909.437
711.943	906.513
712.071	908.312
712.199	900.337
712.327	893.112
712.455	885.350
712.583	894.437
712.712	910.487
712.840	898.075
712.968	886.112
713.096	876.125
713.224	886.325
713.352	874.413
713.480	871.275
713.608	869.775
713.737	864.625
713.865	862.937
713.993	851.362
714.121	845.737
714.249	855.562
714.377	849.100
714.505	854.538
714.633	844.875
714.762	840.200
714.890	842.413
715.018	843.475
715.146	827.337
715.274	833.700
715.402	839.100
715.530	842.575
715.658	827.550
715.787	830.312
715.915	831.337
716.043	822.212
716.171	824.362
716.299	840.450
716.427	821.250
716.555	812.375
716.683	808.850
716.812	808.112
716.940	809.538
717.068	793.237
717.196	795.163
717.324	802.388
717.452	795.550
717.580	792.500
717.708	790.763
717.837	792.837
717.965	786.950
718.093	784.763
718.221	781.263
718.349	768.325
718.477	773.825
718.605	775.462
718.733	780.025
718.862	767.212
718.990	760.163
719.118	768.437
719.246	763.837
719.374	759.725
719.502	765.950
719.630	766.300
719.758	755.812
719.887	753.000
720.015	757.138
720.143	742.362
720.271	748.513
720.399	743.937
720.527	739.700
720.655	736.350
720.783	736.663
720.912	742.550
721.040	746.575
721.168	739.675
721.296	727.625
721.424	733.250
721.552	723.200
721.680	713.538
721.808	727.475
721.937	722.800
722.065	718.337
722.193	708.237
722.321	707.187
722.449	713.975
722.577	710.487
722.705	694.375
722.833	697.663
722.962	705.013
723.090	690.663
723.218	689.250
723.346	696.062
723.474	693.750
723.602	690.775
723.730	685.525
723.858	687.812
723.987	685.350
724.115	672.300
724.243	674.375
724.371	674.538
724.499	678.712
724.627	677.850
724.755	663.312
724.883	673.513
725.012	674.100
725.140	665.325
725.268	653.625
725.396	657.300
725.524	646.775
725.652	656.062
725.780	645.075
725.908	643.225
726.037	645.687
726.165	649.150
726.293	630.013
726.421	633.775
726.549	636.837
726.677	629.625
726.805	631.350
726.933	635.125
727.062	629.300
727.190	620.900
727.318	617.862
727.446	622.337
727.574	621.987
727.702	615.525
727.830	608.638
727.958	610.513
728.087	609.375
728.215	607.288
728.343	598.937
728.471	599.837
728.599	596.525
728.727	605.925
728.855	601.225
728.983	591.850
729.112	583.725
729.240	580.050
729.368	585.250
729.496	581.375
729.624	588.300
729.752	578.900
729.880	583.625
730.008	577.050
730.137	564.263
730.265	568.525
730.393	570.837
730.521	559.712
730.649	563.638
730.777	565.337
730.905	558.663
731.033	560.750
731.162	566.075
731.290	560.062
731.418	556.462
731.546	581.538
731.674	550.525
731.802	542.800
731.930	550.837
732.058	542.875
732.187	538.325
732.315	539.087
732.443	542.087
732.571	534.612
732.699	533.775
732.827	535.437
732.955	530.550
733.083	519.775
733.212	523.487
733.340	533.013
733.468	525.413
733.596	530.687
733.724	525.962
733.852	519.625
733.980	511.675
734.108	511.538
734.237	522.650
734.365	512.625
734.493	513.800
734.621	505.312
734.749	514.525
734.877	510.413
735.005	501.575
735.133	502.538
735.262	504.200
735.390	496.788
735.518	494.725
735.646	496.975
735.774	490.600
735.902	494.625
736.030	491.937
736.158	490.712
736.287	491.187
736.415	493.413
736.543	482.087
736.671	479.387
736.799	480.038
